
File Name : 	C5140836.D00

File Information
	Detector Type:	TGA-50H
	File Name:	C5140836.D00
	Collected Date:	12/05/14
	Collected Time:	08:36:21
	Sample Name:	FS_80
	Sample Weight:	14.52	[mg]
	Cell Type:	Platinum
	Atmospher:	Nitrogen
	Gas Flow:	20.00	[ml/min]
	Operator:	L
	Memo:	Vc 10C/min Tf 900C N2/N2 20ml/min

Temp Program
	Temp Rate	Hold Temp	Hold Time
	deg/min	deg	min
	10.0	900.0	0.

Data
	Time	Temp	TGA
	sec	C	mg
	0.0000	32.76	14.52
	1.000	32.88	14.53
	2.000	32.85	14.53
	3.000	32.97	14.53
	4.000	33.01	14.53
	5.000	33.00	14.54
	6.000	32.99	14.54
	7.000	32.95	14.54
	8.000	32.96	14.54
	9.000	32.83	14.54
	10.00	32.85	14.54
	11.00	33.01	14.54
	12.00	32.93	14.54
	13.00	32.89	14.54
	14.00	33.19	14.54
	15.00	33.26	14.54
	16.00	33.28	14.54
	17.00	33.27	14.54
	18.00	33.30	14.54
	19.00	33.40	14.55
	20.00	33.51	14.55
	21.00	33.65	14.55
	22.00	33.72	14.55
	23.00	33.84	14.55
	24.00	33.75	14.55
	25.00	33.76	14.55
	26.00	33.88	14.55
	27.00	33.99	14.55
	28.00	34.21	14.55
	29.00	34.24	14.55
	30.00	34.26	14.55
	31.00	34.36	14.55
	32.00	34.51	14.55
	33.00	34.59	14.55
	34.00	34.71	14.55
	35.00	34.73	14.55
	36.00	34.98	14.55
	37.00	35.22	14.55
	38.00	35.37	14.55
	39.00	35.60	14.55
	40.00	35.72	14.55
	41.00	35.78	14.55
	42.00	35.85	14.55
	43.00	36.03	14.55
	44.00	36.12	14.55
	45.00	36.21	14.55
	46.00	36.20	14.55
	47.00	36.49	14.55
	48.00	36.67	14.55
	49.00	36.90	14.55
	50.00	37.12	14.55
	51.00	37.10	14.55
	52.00	37.27	14.55
	53.00	37.37	14.55
	54.00	37.59	14.55
	55.00	37.70	14.55
	56.00	37.83	14.55
	57.00	37.73	14.55
	58.00	38.01	14.55
	59.00	38.12	14.55
	60.00	38.27	14.55
	61.00	38.48	14.55
	62.00	38.62	14.55
	63.00	38.78	14.55
	64.00	38.97	14.55
	65.00	39.12	14.55
	66.00	39.42	14.55
	67.00	39.51	14.55
	68.00	39.77	14.55
	69.00	39.93	14.55
	70.00	40.05	14.55
	71.00	40.24	14.55
	72.00	40.34	14.55
	73.00	40.38	14.55
	74.00	40.45	14.55
	75.00	40.69	14.55
	76.00	40.82	14.55
	77.00	40.98	14.55
	78.00	41.15	14.55
	79.00	41.36	14.55
	80.00	41.42	14.55
	81.00	41.46	14.55
	82.00	41.71	14.55
	83.00	41.85	14.55
	84.00	41.94	14.55
	85.00	42.18	14.55
	86.00	42.30	14.55
	87.00	42.57	14.55
	88.00	42.66	14.55
	89.00	42.87	14.55
	90.00	43.11	14.55
	91.00	43.35	14.55
	92.00	43.34	14.55
	93.00	43.59	14.56
	94.00	43.84	14.56
	95.00	44.12	14.56
	96.00	44.22	14.56
	97.00	44.38	14.56
	98.00	44.58	14.56
	99.00	44.75	14.56
	100.0	44.99	14.56
	101.0	45.07	14.56
	102.0	45.28	14.56
	103.0	45.37	14.56
	104.0	45.59	14.56
	105.0	45.83	14.56
	106.0	46.09	14.56
	107.0	46.27	14.56
	108.0	46.39	14.56
	109.0	46.56	14.56
	110.0	46.77	14.56
	111.0	47.00	14.56
	112.0	47.10	14.56
	113.0	47.23	14.56
	114.0	47.40	14.56
	115.0	47.51	14.56
	116.0	47.59	14.56
	117.0	47.94	14.56
	118.0	48.02	14.56
	119.0	48.17	14.56
	120.0	48.40	14.56
	121.0	48.53	14.56
	122.0	48.73	14.56
	123.0	48.95	14.56
	124.0	49.08	14.56
	125.0	49.26	14.56
	126.0	49.41	14.56
	127.0	49.53	14.56
	128.0	49.78	14.56
	129.0	49.87	14.56
	130.0	49.90	14.56
	131.0	50.19	14.56
	132.0	50.32	14.56
	133.0	50.61	14.56
	134.0	50.68	14.56
	135.0	50.87	14.56
	136.0	51.06	14.56
	137.0	51.20	14.56
	138.0	51.21	14.56
	139.0	51.28	14.56
	140.0	51.50	14.56
	141.0	51.65	14.56
	142.0	51.77	14.56
	143.0	51.99	14.56
	144.0	52.15	14.56
	145.0	52.23	14.56
	146.0	52.42	14.56
	147.0	52.57	14.56
	148.0	52.62	14.56
	149.0	52.70	14.56
	150.0	53.08	14.56
	151.0	53.29	14.56
	152.0	53.41	14.56
	153.0	53.49	14.56
	154.0	53.55	14.56
	155.0	53.64	14.56
	156.0	53.96	14.56
	157.0	54.08	14.56
	158.0	54.36	14.56
	159.0	54.45	14.56
	160.0	54.53	14.56
	161.0	54.71	14.56
	162.0	54.87	14.56
	163.0	55.15	14.56
	164.0	55.29	14.56
	165.0	55.34	14.56
	166.0	55.36	14.56
	167.0	55.62	14.56
	168.0	55.89	14.56
	169.0	55.95	14.56
	170.0	56.18	14.56
	171.0	56.35	14.56
	172.0	56.57	14.56
	173.0	56.71	14.56
	174.0	56.72	14.56
	175.0	56.88	14.56
	176.0	57.18	14.56
	177.0	57.37	14.56
	178.0	57.40	14.56
	179.0	57.66	14.56
	180.0	57.87	14.56
	181.0	58.07	14.56
	182.0	58.09	14.56
	183.0	58.08	14.56
	184.0	58.35	14.56
	185.0	58.49	14.56
	186.0	58.66	14.56
	187.0	58.81	14.56
	188.0	58.98	14.56
	189.0	59.18	14.56
	190.0	59.32	14.56
	191.0	59.49	14.56
	192.0	59.69	14.56
	193.0	59.84	14.56
	194.0	59.95	14.56
	195.0	60.18	14.56
	196.0	60.25	14.56
	197.0	60.47	14.56
	198.0	60.67	14.56
	199.0	60.81	14.56
	200.0	61.00	14.56
	201.0	61.20	14.56
	202.0	61.45	14.56
	203.0	61.54	14.56
	204.0	61.62	14.56
	205.0	61.69	14.56
	206.0	61.85	14.56
	207.0	61.93	14.56
	208.0	62.11	14.56
	209.0	62.30	14.56
	210.0	62.41	14.56
	211.0	62.55	14.56
	212.0	62.73	14.56
	213.0	62.95	14.56
	214.0	63.08	14.56
	215.0	63.28	14.56
	216.0	63.39	14.56
	217.0	63.60	14.56
	218.0	63.79	14.56
	219.0	63.84	14.56
	220.0	64.16	14.56
	221.0	64.27	14.56
	222.0	64.33	14.56
	223.0	64.50	14.56
	224.0	64.59	14.56
	225.0	64.83	14.56
	226.0	64.89	14.56
	227.0	65.03	14.56
	228.0	65.23	14.56
	229.0	65.44	14.56
	230.0	65.62	14.56
	231.0	65.71	14.56
	232.0	65.88	14.56
	233.0	66.00	14.56
	234.0	66.16	14.56
	235.0	66.42	14.56
	236.0	66.63	14.56
	237.0	66.79	14.56
	238.0	66.94	14.56
	239.0	67.17	14.56
	240.0	67.35	14.56
	241.0	67.40	14.56
	242.0	67.67	14.56
	243.0	67.73	14.56
	244.0	67.82	14.56
	245.0	68.00	14.56
	246.0	68.25	14.56
	247.0	68.41	14.56
	248.0	68.54	14.56
	249.0	68.60	14.56
	250.0	68.55	14.56
	251.0	68.69	14.56
	252.0	68.90	14.56
	253.0	69.08	14.56
	254.0	69.20	14.56
	255.0	69.35	14.56
	256.0	69.49	14.56
	257.0	69.68	14.56
	258.0	69.79	14.56
	259.0	70.03	14.56
	260.0	70.21	14.56
	261.0	70.36	14.56
	262.0	70.62	14.56
	263.0	70.86	14.56
	264.0	70.96	14.56
	265.0	71.13	14.56
	266.0	71.23	14.56
	267.0	71.48	14.56
	268.0	71.74	14.56
	269.0	71.93	14.56
	270.0	72.10	14.56
	271.0	72.24	14.56
	272.0	72.41	14.56
	273.0	72.67	14.56
	274.0	72.90	14.56
	275.0	73.09	14.56
	276.0	73.26	14.56
	277.0	73.42	14.56
	278.0	73.72	14.56
	279.0	73.81	14.56
	280.0	73.98	14.56
	281.0	74.25	14.56
	282.0	74.34	14.56
	283.0	74.55	14.55
	284.0	74.87	14.55
	285.0	75.11	14.55
	286.0	75.30	14.55
	287.0	75.60	14.55
	288.0	75.83	14.55
	289.0	75.97	14.55
	290.0	76.34	14.55
	291.0	76.51	14.55
	292.0	76.74	14.55
	293.0	77.03	14.55
	294.0	77.29	14.55
	295.0	77.44	14.55
	296.0	77.59	14.55
	297.0	77.76	14.55
	298.0	78.04	14.55
	299.0	78.29	14.55
	300.0	78.44	14.55
	301.0	78.57	14.55
	302.0	78.97	14.55
	303.0	79.08	14.55
	304.0	79.26	14.55
	305.0	79.46	14.55
	306.0	79.55	14.55
	307.0	79.86	14.55
	308.0	80.01	14.55
	309.0	80.32	14.55
	310.0	80.45	14.55
	311.0	80.69	14.55
	312.0	80.87	14.55
	313.0	81.12	14.55
	314.0	81.28	14.55
	315.0	81.51	14.55
	316.0	81.58	14.55
	317.0	81.78	14.55
	318.0	81.99	14.54
	319.0	82.02	14.54
	320.0	82.21	14.54
	321.0	82.29	14.54
	322.0	82.50	14.54
	323.0	82.64	14.54
	324.0	82.83	14.54
	325.0	82.96	14.54
	326.0	83.03	14.54
	327.0	83.02	14.54
	328.0	83.11	14.54
	329.0	83.32	14.54
	330.0	83.52	14.54
	331.0	83.68	14.54
	332.0	83.70	14.54
	333.0	83.72	14.54
	334.0	84.01	14.54
	335.0	84.12	14.54
	336.0	84.27	14.54
	337.0	84.33	14.54
	338.0	84.47	14.54
	339.0	84.50	14.54
	340.0	84.65	14.54
	341.0	84.84	14.54
	342.0	84.93	14.54
	343.0	85.00	14.54
	344.0	85.13	14.54
	345.0	85.14	14.54
	346.0	85.20	14.54
	347.0	85.27	14.54
	348.0	85.44	14.54
	349.0	85.46	14.54
	350.0	85.63	14.54
	351.0	85.75	14.54
	352.0	85.86	14.54
	353.0	85.94	14.54
	354.0	86.03	14.54
	355.0	86.09	14.54
	356.0	86.25	14.54
	357.0	86.44	14.54
	358.0	86.61	14.54
	359.0	86.72	14.54
	360.0	86.80	14.54
	361.0	86.79	14.54
	362.0	86.94	14.54
	363.0	87.12	14.54
	364.0	87.30	14.54
	365.0	87.41	14.54
	366.0	87.55	14.54
	367.0	87.70	14.54
	368.0	87.85	14.54
	369.0	87.89	14.54
	370.0	88.12	14.54
	371.0	88.30	14.54
	372.0	88.39	14.54
	373.0	88.64	14.54
	374.0	88.83	14.54
	375.0	88.98	14.54
	376.0	89.15	14.54
	377.0	89.40	14.54
	378.0	89.60	14.54
	379.0	89.78	14.54
	380.0	89.89	14.54
	381.0	90.03	14.54
	382.0	90.32	14.54
	383.0	90.47	14.54
	384.0	90.60	14.54
	385.0	90.81	14.54
	386.0	90.95	14.54
	387.0	91.17	14.54
	388.0	91.41	14.54
	389.0	91.57	14.54
	390.0	91.84	14.54
	391.0	92.00	14.54
	392.0	92.26	14.54
	393.0	92.36	14.54
	394.0	92.59	14.54
	395.0	92.81	14.54
	396.0	92.97	14.54
	397.0	93.17	14.54
	398.0	93.24	14.54
	399.0	93.47	14.54
	400.0	93.77	14.54
	401.0	93.96	14.54
	402.0	94.23	14.54
	403.0	94.42	14.54
	404.0	94.67	14.54
	405.0	94.82	14.54
	406.0	94.89	14.54
	407.0	95.15	14.54
	408.0	95.29	14.54
	409.0	95.45	14.54
	410.0	95.66	14.54
	411.0	95.96	14.54
	412.0	96.19	14.54
	413.0	96.47	14.54
	414.0	96.58	14.54
	415.0	96.72	14.54
	416.0	96.89	14.54
	417.0	96.91	14.54
	418.0	97.09	14.54
	419.0	97.27	14.54
	420.0	97.54	14.54
	421.0	97.74	14.54
	422.0	97.97	14.54
	423.0	98.12	14.54
	424.0	98.25	14.54
	425.0	98.53	14.54
	426.0	98.75	14.54
	427.0	98.99	14.54
	428.0	99.06	14.54
	429.0	99.32	14.54
	430.0	99.47	14.54
	431.0	99.69	14.54
	432.0	99.76	14.54
	433.0	99.89	14.54
	434.0	100.1	14.54
	435.0	100.3	14.54
	436.0	100.4	14.53
	437.0	100.6	14.53
	438.0	100.7	14.53
	439.0	100.9	14.53
	440.0	101.0	14.53
	441.0	101.2	14.53
	442.0	101.3	14.53
	443.0	101.4	14.53
	444.0	101.6	14.53
	445.0	101.7	14.53
	446.0	101.9	14.53
	447.0	102.0	14.53
	448.0	102.2	14.53
	449.0	102.3	14.53
	450.0	102.5	14.53
	451.0	102.5	14.53
	452.0	102.7	14.53
	453.0	102.8	14.53
	454.0	102.8	14.53
	455.0	103.0	14.53
	456.0	103.3	14.53
	457.0	103.4	14.53
	458.0	103.6	14.53
	459.0	103.8	14.53
	460.0	103.8	14.53
	461.0	103.8	14.53
	462.0	104.0	14.53
	463.0	104.2	14.53
	464.0	104.2	14.53
	465.0	104.5	14.53
	466.0	104.6	14.53
	467.0	104.7	14.53
	468.0	104.8	14.53
	469.0	104.9	14.53
	470.0	105.0	14.53
	471.0	105.2	14.53
	472.0	105.4	14.53
	473.0	105.5	14.53
	474.0	105.6	14.53
	475.0	105.8	14.53
	476.0	105.9	14.53
	477.0	106.1	14.53
	478.0	106.2	14.53
	479.0	106.3	14.53
	480.0	106.5	14.53
	481.0	106.7	14.53
	482.0	106.8	14.53
	483.0	107.0	14.53
	484.0	107.2	14.53
	485.0	107.4	14.53
	486.0	107.6	14.53
	487.0	107.8	14.53
	488.0	107.9	14.53
	489.0	108.1	14.53
	490.0	108.3	14.53
	491.0	108.5	14.53
	492.0	108.6	14.53
	493.0	108.7	14.53
	494.0	108.9	14.53
	495.0	109.0	14.53
	496.0	109.3	14.53
	497.0	109.5	14.53
	498.0	109.7	14.53
	499.0	109.8	14.53
	500.0	110.1	14.53
	501.0	110.3	14.53
	502.0	110.5	14.53
	503.0	110.6	14.53
	504.0	110.9	14.53
	505.0	111.0	14.53
	506.0	111.2	14.53
	507.0	111.4	14.53
	508.0	111.7	14.53
	509.0	111.8	14.53
	510.0	112.0	14.53
	511.0	112.3	14.53
	512.0	112.3	14.53
	513.0	112.5	14.53
	514.0	112.7	14.53
	515.0	113.0	14.53
	516.0	113.2	14.53
	517.0	113.4	14.53
	518.0	113.5	14.53
	519.0	113.7	14.53
	520.0	113.9	14.53
	521.0	114.2	14.53
	522.0	114.3	14.53
	523.0	114.6	14.53
	524.0	114.8	14.53
	525.0	115.0	14.53
	526.0	115.2	14.53
	527.0	115.4	14.53
	528.0	115.6	14.53
	529.0	115.7	14.53
	530.0	115.9	14.53
	531.0	116.0	14.53
	532.0	116.1	14.53
	533.0	116.4	14.53
	534.0	116.4	14.53
	535.0	116.5	14.52
	536.0	116.7	14.52
	537.0	116.9	14.52
	538.0	117.0	14.52
	539.0	117.3	14.52
	540.0	117.5	14.52
	541.0	117.5	14.52
	542.0	117.7	14.52
	543.0	117.9	14.52
	544.0	118.0	14.52
	545.0	118.2	14.52
	546.0	118.4	14.52
	547.0	118.4	14.52
	548.0	118.7	14.52
	549.0	118.8	14.52
	550.0	118.9	14.52
	551.0	118.9	14.52
	552.0	119.0	14.52
	553.0	119.2	14.52
	554.0	119.4	14.52
	555.0	119.6	14.52
	556.0	119.7	14.52
	557.0	119.8	14.52
	558.0	120.0	14.52
	559.0	120.1	14.52
	560.0	120.3	14.52
	561.0	120.4	14.52
	562.0	120.5	14.52
	563.0	120.7	14.52
	564.0	120.9	14.52
	565.0	121.1	14.52
	566.0	121.3	14.52
	567.0	121.4	14.52
	568.0	121.4	14.52
	569.0	121.5	14.52
	570.0	121.7	14.52
	571.0	121.8	14.52
	572.0	122.0	14.52
	573.0	122.1	14.52
	574.0	122.3	14.52
	575.0	122.5	14.52
	576.0	122.7	14.52
	577.0	122.8	14.52
	578.0	122.9	14.52
	579.0	123.1	14.52
	580.0	123.3	14.52
	581.0	123.4	14.52
	582.0	123.6	14.52
	583.0	123.8	14.52
	584.0	124.0	14.52
	585.0	124.2	14.52
	586.0	124.4	14.52
	587.0	124.5	14.52
	588.0	124.6	14.52
	589.0	124.8	14.52
	590.0	125.0	14.52
	591.0	125.1	14.51
	592.0	125.3	14.51
	593.0	125.6	14.51
	594.0	125.7	14.51
	595.0	125.9	14.51
	596.0	126.0	14.51
	597.0	126.3	14.51
	598.0	126.4	14.51
	599.0	126.6	14.51
	600.0	126.7	14.51
	601.0	126.7	14.51
	602.0	126.9	14.51
	603.0	127.3	14.51
	604.0	127.5	14.51
	605.0	127.6	14.51
	606.0	127.9	14.51
	607.0	128.0	14.51
	608.0	128.1	14.51
	609.0	128.4	14.51
	610.0	128.6	14.51
	611.0	128.8	14.51
	612.0	129.0	14.51
	613.0	129.2	14.51
	614.0	129.4	14.51
	615.0	129.5	14.51
	616.0	129.7	14.51
	617.0	129.9	14.51
	618.0	130.0	14.51
	619.0	130.3	14.51
	620.0	130.4	14.51
	621.0	130.6	14.51
	622.0	130.8	14.51
	623.0	130.9	14.51
	624.0	131.1	14.51
	625.0	131.4	14.50
	626.0	131.5	14.50
	627.0	131.8	14.50
	628.0	131.9	14.50
	629.0	132.0	14.50
	630.0	132.2	14.50
	631.0	132.4	14.50
	632.0	132.5	14.50
	633.0	132.7	14.50
	634.0	132.8	14.50
	635.0	133.1	14.50
	636.0	133.3	14.50
	637.0	133.4	14.50
	638.0	133.6	14.50
	639.0	133.8	14.50
	640.0	133.8	14.50
	641.0	134.1	14.50
	642.0	134.2	14.50
	643.0	134.4	14.50
	644.0	134.6	14.50
	645.0	134.7	14.50
	646.0	134.8	14.50
	647.0	134.9	14.50
	648.0	135.1	14.50
	649.0	135.3	14.49
	650.0	135.5	14.49
	651.0	135.6	14.49
	652.0	135.8	14.49
	653.0	136.0	14.49
	654.0	136.0	14.49
	655.0	136.2	14.49
	656.0	136.3	14.49
	657.0	136.4	14.49
	658.0	136.5	14.49
	659.0	136.7	14.49
	660.0	136.8	14.49
	661.0	136.9	14.49
	662.0	137.0	14.49
	663.0	137.2	14.49
	664.0	137.4	14.49
	665.0	137.5	14.49
	666.0	137.8	14.49
	667.0	137.9	14.49
	668.0	138.1	14.49
	669.0	138.1	14.49
	670.0	138.3	14.48
	671.0	138.5	14.48
	672.0	138.6	14.48
	673.0	138.8	14.48
	674.0	138.9	14.48
	675.0	139.0	14.48
	676.0	139.3	14.48
	677.0	139.3	14.48
	678.0	139.5	14.48
	679.0	139.8	14.48
	680.0	139.9	14.48
	681.0	140.0	14.48
	682.0	140.2	14.48
	683.0	140.4	14.48
	684.0	140.5	14.48
	685.0	140.7	14.48
	686.0	141.0	14.48
	687.0	141.1	14.48
	688.0	141.4	14.47
	689.0	141.6	14.47
	690.0	141.7	14.47
	691.0	142.0	14.47
	692.0	142.1	14.47
	693.0	142.4	14.47
	694.0	142.6	14.47
	695.0	142.8	14.47
	696.0	143.1	14.47
	697.0	143.2	14.47
	698.0	143.3	14.47
	699.0	143.6	14.47
	700.0	143.7	14.47
	701.0	143.9	14.46
	702.0	144.1	14.46
	703.0	144.3	14.46
	704.0	144.4	14.46
	705.0	144.6	14.46
	706.0	144.9	14.46
	707.0	145.0	14.46
	708.0	145.2	14.46
	709.0	145.4	14.46
	710.0	145.5	14.46
	711.0	145.6	14.46
	712.0	145.8	14.46
	713.0	146.0	14.46
	714.0	146.1	14.45
	715.0	146.2	14.45
	716.0	146.3	14.45
	717.0	146.6	14.45
	718.0	146.7	14.45
	719.0	146.9	14.45
	720.0	147.1	14.45
	721.0	147.3	14.45
	722.0	147.5	14.45
	723.0	147.6	14.45
	724.0	147.7	14.44
	725.0	147.9	14.44
	726.0	148.0	14.44
	727.0	148.3	14.44
	728.0	148.4	14.44
	729.0	148.5	14.44
	730.0	148.7	14.44
	731.0	148.8	14.44
	732.0	149.0	14.44
	733.0	149.1	14.44
	734.0	149.2	14.43
	735.0	149.4	14.43
	736.0	149.6	14.43
	737.0	149.8	14.43
	738.0	149.8	14.43
	739.0	150.0	14.43
	740.0	150.2	14.43
	741.0	150.4	14.43
	742.0	150.6	14.43
	743.0	150.7	14.42
	744.0	150.9	14.42
	745.0	151.0	14.42
	746.0	151.0	14.42
	747.0	151.2	14.42
	748.0	151.3	14.42
	749.0	151.5	14.42
	750.0	151.7	14.42
	751.0	151.9	14.42
	752.0	152.1	14.41
	753.0	152.2	14.41
	754.0	152.4	14.41
	755.0	152.6	14.41
	756.0	152.8	14.41
	757.0	152.9	14.41
	758.0	153.1	14.41
	759.0	153.2	14.40
	760.0	153.5	14.40
	761.0	153.7	14.40
	762.0	153.8	14.40
	763.0	154.0	14.40
	764.0	154.1	14.40
	765.0	154.2	14.40
	766.0	154.4	14.40
	767.0	154.6	14.39
	768.0	154.8	14.39
	769.0	154.8	14.39
	770.0	154.9	14.39
	771.0	155.1	14.39
	772.0	155.2	14.39
	773.0	155.4	14.38
	774.0	155.6	14.38
	775.0	155.8	14.38
	776.0	156.0	14.38
	777.0	156.2	14.38
	778.0	156.4	14.38
	779.0	156.5	14.38
	780.0	156.7	14.37
	781.0	156.9	14.37
	782.0	157.2	14.37
	783.0	157.3	14.37
	784.0	157.5	14.37
	785.0	157.7	14.37
	786.0	158.0	14.36
	787.0	158.1	14.36
	788.0	158.3	14.36
	789.0	158.5	14.36
	790.0	158.7	14.36
	791.0	158.8	14.35
	792.0	159.1	14.35
	793.0	159.3	14.35
	794.0	159.4	14.35
	795.0	159.4	14.35
	796.0	159.7	14.34
	797.0	160.0	14.34
	798.0	160.1	14.34
	799.0	160.3	14.34
	800.0	160.5	14.34
	801.0	160.7	14.33
	802.0	160.9	14.33
	803.0	160.9	14.33
	804.0	161.1	14.33
	805.0	161.3	14.33
	806.0	161.5	14.32
	807.0	161.7	14.32
	808.0	161.8	14.32
	809.0	161.9	14.32
	810.0	162.2	14.31
	811.0	162.3	14.31
	812.0	162.4	14.31
	813.0	162.5	14.31
	814.0	162.7	14.31
	815.0	162.8	14.30
	816.0	163.0	14.30
	817.0	163.1	14.30
	818.0	163.3	14.30
	819.0	163.7	14.29
	820.0	163.7	14.29
	821.0	163.8	14.29
	822.0	164.0	14.29
	823.0	164.0	14.28
	824.0	164.3	14.28
	825.0	164.4	14.28
	826.0	164.5	14.28
	827.0	164.6	14.27
	828.0	164.6	14.27
	829.0	164.9	14.27
	830.0	165.1	14.27
	831.0	165.2	14.26
	832.0	165.3	14.26
	833.0	165.5	14.26
	834.0	165.7	14.25
	835.0	165.9	14.25
	836.0	166.0	14.25
	837.0	166.1	14.25
	838.0	166.2	14.24
	839.0	166.4	14.24
	840.0	166.6	14.24
	841.0	166.7	14.23
	842.0	166.8	14.23
	843.0	167.1	14.23
	844.0	167.3	14.23
	845.0	167.5	14.22
	846.0	167.6	14.22
	847.0	167.8	14.22
	848.0	168.0	14.21
	849.0	168.1	14.21
	850.0	168.3	14.21
	851.0	168.5	14.20
	852.0	168.7	14.20
	853.0	168.9	14.20
	854.0	169.1	14.19
	855.0	169.3	14.19
	856.0	169.4	14.19
	857.0	169.6	14.18
	858.0	169.7	14.18
	859.0	169.9	14.18
	860.0	170.0	14.17
	861.0	170.1	14.17
	862.0	170.4	14.17
	863.0	170.5	14.16
	864.0	170.7	14.16
	865.0	170.8	14.16
	866.0	170.9	14.15
	867.0	171.2	14.15
	868.0	171.4	14.15
	869.0	171.6	14.14
	870.0	171.8	14.14
	871.0	171.8	14.13
	872.0	172.0	14.13
	873.0	172.2	14.13
	874.0	172.3	14.12
	875.0	172.4	14.12
	876.0	172.6	14.11
	877.0	172.8	14.11
	878.0	172.9	14.11
	879.0	173.1	14.10
	880.0	173.2	14.10
	881.0	173.4	14.09
	882.0	173.6	14.09
	883.0	173.8	14.09
	884.0	173.9	14.08
	885.0	174.1	14.08
	886.0	174.3	14.07
	887.0	174.6	14.07
	888.0	174.7	14.06
	889.0	175.0	14.06
	890.0	175.1	14.06
	891.0	175.3	14.05
	892.0	175.5	14.05
	893.0	175.6	14.04
	894.0	175.8	14.04
	895.0	176.0	14.03
	896.0	176.1	14.03
	897.0	176.4	14.02
	898.0	176.5	14.02
	899.0	176.8	14.01
	900.0	176.9	14.01
	901.0	177.1	14.00
	902.0	177.3	14.00
	903.0	177.4	13.99
	904.0	177.6	13.99
	905.0	177.8	13.98
	906.0	177.9	13.98
	907.0	178.1	13.97
	908.0	178.3	13.97
	909.0	178.5	13.96
	910.0	178.7	13.96
	911.0	178.9	13.95
	912.0	179.1	13.94
	913.0	179.2	13.94
	914.0	179.4	13.93
	915.0	179.6	13.93
	916.0	179.7	13.92
	917.0	179.9	13.92
	918.0	180.0	13.91
	919.0	180.1	13.90
	920.0	180.3	13.90
	921.0	180.5	13.89
	922.0	180.7	13.89
	923.0	180.8	13.88
	924.0	181.0	13.87
	925.0	181.2	13.87
	926.0	181.3	13.86
	927.0	181.5	13.86
	928.0	181.7	13.85
	929.0	181.8	13.84
	930.0	182.1	13.83
	931.0	182.2	13.83
	932.0	182.4	13.82
	933.0	182.5	13.81
	934.0	182.7	13.81
	935.0	182.8	13.80
	936.0	183.0	13.79
	937.0	183.1	13.79
	938.0	183.2	13.78
	939.0	183.3	13.77
	940.0	183.5	13.77
	941.0	183.5	13.76
	942.0	183.7	13.75
	943.0	183.8	13.74
	944.0	183.9	13.74
	945.0	184.1	13.73
	946.0	184.2	13.72
	947.0	184.3	13.72
	948.0	184.5	13.71
	949.0	184.6	13.70
	950.0	184.8	13.69
	951.0	185.0	13.69
	952.0	185.2	13.68
	953.0	185.4	13.67
	954.0	185.5	13.66
	955.0	185.6	13.66
	956.0	185.8	13.65
	957.0	186.0	13.64
	958.0	186.2	13.63
	959.0	186.4	13.62
	960.0	186.6	13.62
	961.0	186.8	13.61
	962.0	187.0	13.60
	963.0	187.1	13.59
	964.0	187.4	13.58
	965.0	187.4	13.58
	966.0	187.6	13.57
	967.0	187.7	13.56
	968.0	188.0	13.55
	969.0	188.1	13.54
	970.0	188.3	13.53
	971.0	188.5	13.52
	972.0	188.7	13.51
	973.0	188.9	13.51
	974.0	189.1	13.50
	975.0	189.2	13.49
	976.0	189.5	13.48
	977.0	189.6	13.47
	978.0	189.8	13.46
	979.0	189.9	13.45
	980.0	190.1	13.44
	981.0	190.2	13.43
	982.0	190.4	13.42
	983.0	190.6	13.41
	984.0	190.9	13.40
	985.0	191.0	13.39
	986.0	191.1	13.38
	987.0	191.3	13.37
	988.0	191.4	13.36
	989.0	191.6	13.35
	990.0	191.8	13.34
	991.0	192.0	13.33
	992.0	192.2	13.32
	993.0	192.3	13.31
	994.0	192.4	13.30
	995.0	192.7	13.29
	996.0	192.9	13.28
	997.0	193.0	13.27
	998.0	193.3	13.26
	999.0	193.5	13.25
	1000.	193.8	13.23
	1001.	193.9	13.22
	1002.	194.0	13.21
	1003.	194.2	13.20
	1004.	194.3	13.19
	1005.	194.5	13.18
	1006.	194.7	13.17
	1007.	194.8	13.15
	1008.	195.0	13.14
	1009.	195.2	13.13
	1010.	195.4	13.12
	1011.	195.5	13.11
	1012.	195.6	13.09
	1013.	195.8	13.08
	1014.	195.8	13.07
	1015.	196.0	13.06
	1016.	196.2	13.04
	1017.	196.4	13.03
	1018.	196.5	13.02
	1019.	196.6	13.01
	1020.	196.8	12.99
	1021.	197.0	12.98
	1022.	197.1	12.97
	1023.	197.2	12.95
	1024.	197.5	12.94
	1025.	197.6	12.93
	1026.	197.9	12.91
	1027.	197.9	12.90
	1028.	198.0	12.89
	1029.	198.2	12.87
	1030.	198.5	12.86
	1031.	198.6	12.85
	1032.	198.6	12.83
	1033.	198.8	12.82
	1034.	199.1	12.81
	1035.	199.3	12.79
	1036.	199.4	12.78
	1037.	199.6	12.76
	1038.	199.8	12.75
	1039.	199.9	12.73
	1040.	200.1	12.72
	1041.	200.2	12.70
	1042.	200.3	12.69
	1043.	200.5	12.68
	1044.	200.6	12.66
	1045.	200.8	12.64
	1046.	200.9	12.63
	1047.	201.2	12.61
	1048.	201.3	12.60
	1049.	201.3	12.58
	1050.	201.5	12.57
	1051.	201.6	12.55
	1052.	201.8	12.54
	1053.	202.0	12.52
	1054.	202.2	12.50
	1055.	202.5	12.49
	1056.	202.6	12.47
	1057.	202.8	12.46
	1058.	202.9	12.44
	1059.	203.1	12.42
	1060.	203.4	12.41
	1061.	203.5	12.39
	1062.	203.8	12.37
	1063.	203.9	12.36
	1064.	204.1	12.34
	1065.	204.2	12.32
	1066.	204.3	12.30
	1067.	204.5	12.29
	1068.	204.7	12.27
	1069.	204.9	12.25
	1070.	205.2	12.23
	1071.	205.3	12.21
	1072.	205.5	12.19
	1073.	205.6	12.18
	1074.	205.9	12.16
	1075.	206.1	12.14
	1076.	206.2	12.12
	1077.	206.4	12.10
	1078.	206.6	12.08
	1079.	206.8	12.06
	1080.	207.0	12.04
	1081.	207.2	12.02
	1082.	207.3	12.00
	1083.	207.4	11.98
	1084.	207.6	11.96
	1085.	207.8	11.94
	1086.	208.0	11.92
	1087.	208.3	11.90
	1088.	208.3	11.88
	1089.	208.5	11.86
	1090.	208.6	11.84
	1091.	208.8	11.82
	1092.	209.0	11.80
	1093.	209.2	11.78
	1094.	209.5	11.75
	1095.	209.6	11.73
	1096.	209.7	11.71
	1097.	210.0	11.69
	1098.	210.2	11.67
	1099.	210.3	11.64
	1100.	210.4	11.62
	1101.	210.5	11.60
	1102.	210.7	11.58
	1103.	210.9	11.55
	1104.	211.1	11.53
	1105.	211.3	11.51
	1106.	211.5	11.49
	1107.	211.7	11.46
	1108.	211.7	11.44
	1109.	211.9	11.42
	1110.	212.0	11.39
	1111.	212.2	11.37
	1112.	212.3	11.35
	1113.	212.5	11.32
	1114.	212.6	11.30
	1115.	212.8	11.27
	1116.	212.8	11.25
	1117.	213.0	11.23
	1118.	213.1	11.20
	1119.	213.2	11.18
	1120.	213.4	11.15
	1121.	213.6	11.13
	1122.	213.8	11.10
	1123.	213.9	11.08
	1124.	214.1	11.05
	1125.	214.2	11.03
	1126.	214.3	11.01
	1127.	214.5	10.98
	1128.	214.6	10.95
	1129.	214.8	10.93
	1130.	215.0	10.90
	1131.	215.2	10.88
	1132.	215.3	10.85
	1133.	215.5	10.82
	1134.	215.5	10.80
	1135.	215.8	10.77
	1136.	215.9	10.74
	1137.	216.0	10.72
	1138.	216.2	10.69
	1139.	216.4	10.66
	1140.	216.5	10.63
	1141.	216.7	10.61
	1142.	216.9	10.58
	1143.	217.0	10.55
	1144.	217.2	10.52
	1145.	217.4	10.49
	1146.	217.6	10.47
	1147.	217.7	10.44
	1148.	217.9	10.41
	1149.	218.1	10.38
	1150.	218.3	10.35
	1151.	218.5	10.32
	1152.	218.6	10.29
	1153.	218.7	10.26
	1154.	218.9	10.23
	1155.	219.2	10.20
	1156.	219.4	10.17
	1157.	219.6	10.14
	1158.	219.7	10.11
	1159.	219.9	10.08
	1160.	220.2	10.05
	1161.	220.4	10.02
	1162.	220.5	9.985
	1163.	220.7	9.953
	1164.	220.8	9.921
	1165.	221.0	9.888
	1166.	221.3	9.856
	1167.	221.5	9.824
	1168.	221.7	9.791
	1169.	221.9	9.758
	1170.	222.1	9.724
	1171.	222.2	9.690
	1172.	222.4	9.656
	1173.	222.6	9.622
	1174.	222.7	9.589
	1175.	222.9	9.554
	1176.	223.1	9.520
	1177.	223.3	9.484
	1178.	223.4	9.450
	1179.	223.6	9.416
	1180.	223.8	9.381
	1181.	223.9	9.346
	1182.	224.0	9.311
	1183.	224.0	9.276
	1184.	224.3	9.241
	1185.	224.5	9.205
	1186.	224.6	9.169
	1187.	224.9	9.132
	1188.	225.0	9.095
	1189.	225.1	9.058
	1190.	225.3	9.020
	1191.	225.5	8.983
	1192.	225.7	8.945
	1193.	225.8	8.908
	1194.	225.9	8.869
	1195.	226.0	8.832
	1196.	226.2	8.794
	1197.	226.4	8.755
	1198.	226.5	8.717
	1199.	226.7	8.678
	1200.	226.8	8.640
	1201.	227.0	8.602
	1202.	227.2	8.564
	1203.	227.4	8.526
	1204.	227.6	8.487
	1205.	227.7	8.449
	1206.	227.8	8.409
	1207.	228.0	8.369
	1208.	228.2	8.330
	1209.	228.4	8.290
	1210.	228.6	8.250
	1211.	228.7	8.210
	1212.	228.8	8.169
	1213.	229.0	8.130
	1214.	229.2	8.089
	1215.	229.4	8.049
	1216.	229.5	8.008
	1217.	229.6	7.967
	1218.	229.8	7.927
	1219.	229.8	7.886
	1220.	230.1	7.844
	1221.	230.2	7.802
	1222.	230.4	7.760
	1223.	230.6	7.718
	1224.	230.8	7.676
	1225.	230.9	7.634
	1226.	231.1	7.591
	1227.	231.3	7.549
	1228.	231.5	7.506
	1229.	231.8	7.463
	1230.	231.9	7.419
	1231.	232.1	7.374
	1232.	232.2	7.330
	1233.	232.3	7.286
	1234.	232.5	7.242
	1235.	232.8	7.198
	1236.	232.9	7.151
	1237.	233.0	7.107
	1238.	233.2	7.063
	1239.	233.4	7.019
	1240.	233.5	6.974
	1241.	233.8	6.929
	1242.	234.0	6.883
	1243.	234.1	6.837
	1244.	234.3	6.791
	1245.	234.4	6.746
	1246.	234.5	6.700
	1247.	234.6	6.654
	1248.	234.8	6.607
	1249.	235.0	6.561
	1250.	235.1	6.515
	1251.	235.3	6.467
	1252.	235.5	6.419
	1253.	235.7	6.371
	1254.	235.8	6.323
	1255.	235.9	6.273
	1256.	236.1	6.225
	1257.	236.2	6.177
	1258.	236.4	6.129
	1259.	236.5	6.080
	1260.	236.8	6.029
	1261.	237.0	5.981
	1262.	237.2	5.932
	1263.	237.4	5.883
	1264.	237.6	5.835
	1265.	237.8	5.787
	1266.	238.0	5.737
	1267.	238.2	5.688
	1268.	238.3	5.638
	1269.	238.4	5.586
	1270.	238.6	5.536
	1271.	238.7	5.484
	1272.	238.9	5.433
	1273.	239.1	5.381
	1274.	239.2	5.330
	1275.	239.4	5.280
	1276.	239.6	5.230
	1277.	239.7	5.179
	1278.	239.9	5.129
	1279.	240.1	5.079
	1280.	240.3	5.029
	1281.	240.6	4.978
	1282.	240.8	4.927
	1283.	240.9	4.876
	1284.	240.9	4.824
	1285.	241.1	4.775
	1286.	241.3	4.724
	1287.	241.5	4.671
	1288.	241.6	4.620
	1289.	241.8	4.569
	1290.	242.0	4.518
	1291.	242.1	4.468
	1292.	242.4	4.417
	1293.	242.5	4.367
	1294.	242.7	4.317
	1295.	242.8	4.267
	1296.	242.9	4.217
	1297.	243.0	4.167
	1298.	243.3	4.117
	1299.	243.4	4.068
	1300.	243.6	4.017
	1301.	243.8	3.967
	1302.	243.9	3.919
	1303.	244.1	3.871
	1304.	244.2	3.823
	1305.	244.4	3.776
	1306.	244.6	3.728
	1307.	244.8	3.681
	1308.	245.0	3.635
	1309.	245.2	3.590
	1310.	245.2	3.544
	1311.	245.4	3.498
	1312.	245.5	3.454
	1313.	245.8	3.410
	1314.	245.9	3.364
	1315.	246.1	3.321
	1316.	246.2	3.280
	1317.	246.4	3.239
	1318.	246.6	3.198
	1319.	246.8	3.159
	1320.	246.9	3.120
	1321.	247.1	3.083
	1322.	247.2	3.047
	1323.	247.4	3.011
	1324.	247.6	2.977
	1325.	247.7	2.943
	1326.	247.9	2.911
	1327.	248.1	2.879
	1328.	248.3	2.848
	1329.	248.5	2.818
	1330.	248.7	2.790
	1331.	248.9	2.763
	1332.	248.9	2.736
	1333.	249.2	2.710
	1334.	249.4	2.685
	1335.	249.5	2.662
	1336.	249.6	2.639
	1337.	249.8	2.617
	1338.	250.0	2.596
	1339.	250.2	2.576
	1340.	250.3	2.557
	1341.	250.6	2.537
	1342.	250.8	2.519
	1343.	250.9	2.502
	1344.	251.1	2.486
	1345.	251.2	2.470
	1346.	251.4	2.455
	1347.	251.6	2.441
	1348.	251.6	2.427
	1349.	251.8	2.413
	1350.	252.0	2.400
	1351.	252.1	2.387
	1352.	252.2	2.374
	1353.	252.3	2.363
	1354.	252.5	2.351
	1355.	252.7	2.340
	1356.	252.9	2.329
	1357.	253.1	2.318
	1358.	253.2	2.308
	1359.	253.4	2.298
	1360.	253.5	2.289
	1361.	253.6	2.280
	1362.	253.8	2.271
	1363.	254.1	2.262
	1364.	254.2	2.254
	1365.	254.3	2.246
	1366.	254.5	2.237
	1367.	254.7	2.229
	1368.	254.8	2.221
	1369.	255.0	2.213
	1370.	255.1	2.205
	1371.	255.2	2.198
	1372.	255.4	2.191
	1373.	255.5	2.184
	1374.	255.7	2.176
	1375.	255.9	2.169
	1376.	256.1	2.162
	1377.	256.3	2.156
	1378.	256.4	2.149
	1379.	256.6	2.142
	1380.	256.8	2.136
	1381.	257.0	2.130
	1382.	257.2	2.123
	1383.	257.3	2.117
	1384.	257.5	2.111
	1385.	257.6	2.105
	1386.	257.8	2.099
	1387.	257.9	2.093
	1388.	258.1	2.087
	1389.	258.3	2.081
	1390.	258.5	2.075
	1391.	258.6	2.070
	1392.	258.8	2.064
	1393.	258.8	2.058
	1394.	259.1	2.053
	1395.	259.4	2.047
	1396.	259.5	2.041
	1397.	259.7	2.036
	1398.	260.0	2.030
	1399.	260.2	2.024
	1400.	260.3	2.019
	1401.	260.5	2.013
	1402.	260.7	2.008
	1403.	260.9	2.002
	1404.	261.1	1.997
	1405.	261.2	1.991
	1406.	261.4	1.986
	1407.	261.6	1.981
	1408.	261.8	1.975
	1409.	262.0	1.970
	1410.	262.2	1.965
	1411.	262.3	1.959
	1412.	262.4	1.954
	1413.	262.6	1.949
	1414.	262.7	1.944
	1415.	262.9	1.938
	1416.	263.1	1.933
	1417.	263.3	1.928
	1418.	263.4	1.923
	1419.	263.6	1.917
	1420.	263.8	1.912
	1421.	264.0	1.907
	1422.	264.1	1.902
	1423.	264.4	1.897
	1424.	264.6	1.892
	1425.	264.8	1.887
	1426.	264.9	1.882
	1427.	265.1	1.877
	1428.	265.1	1.872
	1429.	265.3	1.867
	1430.	265.4	1.862
	1431.	265.5	1.857
	1432.	265.7	1.852
	1433.	265.8	1.848
	1434.	266.1	1.843
	1435.	266.3	1.839
	1436.	266.4	1.834
	1437.	266.5	1.829
	1438.	266.7	1.825
	1439.	266.8	1.820
	1440.	267.0	1.815
	1441.	267.1	1.811
	1442.	267.2	1.806
	1443.	267.4	1.802
	1444.	267.5	1.797
	1445.	267.7	1.793
	1446.	267.9	1.788
	1447.	268.0	1.784
	1448.	268.2	1.779
	1449.	268.3	1.775
	1450.	268.4	1.771
	1451.	268.5	1.767
	1452.	268.7	1.763
	1453.	268.9	1.759
	1454.	269.1	1.754
	1455.	269.3	1.750
	1456.	269.4	1.746
	1457.	269.4	1.742
	1458.	269.6	1.738
	1459.	269.9	1.734
	1460.	270.0	1.731
	1461.	270.2	1.727
	1462.	270.4	1.724
	1463.	270.6	1.720
	1464.	270.8	1.716
	1465.	271.0	1.712
	1466.	271.2	1.709
	1467.	271.4	1.705
	1468.	271.6	1.702
	1469.	271.8	1.698
	1470.	272.0	1.695
	1471.	272.2	1.692
	1472.	272.4	1.689
	1473.	272.5	1.685
	1474.	272.7	1.682
	1475.	272.9	1.679
	1476.	273.0	1.676
	1477.	273.3	1.673
	1478.	273.4	1.669
	1479.	273.6	1.666
	1480.	273.8	1.663
	1481.	273.9	1.660
	1482.	274.2	1.657
	1483.	274.4	1.655
	1484.	274.6	1.652
	1485.	274.7	1.649
	1486.	274.8	1.646
	1487.	274.9	1.643
	1488.	275.1	1.640
	1489.	275.2	1.638
	1490.	275.4	1.635
	1491.	275.5	1.633
	1492.	275.7	1.630
	1493.	275.8	1.628
	1494.	276.0	1.626
	1495.	276.2	1.623
	1496.	276.3	1.621
	1497.	276.5	1.619
	1498.	276.6	1.616
	1499.	276.7	1.614
	1500.	276.9	1.612
	1501.	277.0	1.610
	1502.	277.2	1.608
	1503.	277.3	1.605
	1504.	277.5	1.603
	1505.	277.7	1.602
	1506.	277.8	1.600
	1507.	277.9	1.598
	1508.	278.1	1.596
	1509.	278.2	1.594
	1510.	278.4	1.592
	1511.	278.5	1.590
	1512.	278.7	1.589
	1513.	278.8	1.587
	1514.	279.0	1.585
	1515.	279.2	1.583
	1516.	279.4	1.582
	1517.	279.5	1.580
	1518.	279.8	1.579
	1519.	280.0	1.577
	1520.	280.1	1.576
	1521.	280.2	1.574
	1522.	280.4	1.573
	1523.	280.6	1.571
	1524.	280.7	1.569
	1525.	280.9	1.568
	1526.	281.1	1.567
	1527.	281.2	1.565
	1528.	281.3	1.564
	1529.	281.6	1.563
	1530.	281.7	1.561
	1531.	281.8	1.560
	1532.	282.0	1.558
	1533.	282.2	1.557
	1534.	282.4	1.556
	1535.	282.6	1.554
	1536.	282.8	1.553
	1537.	283.0	1.552
	1538.	283.2	1.551
	1539.	283.5	1.549
	1540.	283.6	1.548
	1541.	283.8	1.547
	1542.	284.0	1.546
	1543.	284.3	1.544
	1544.	284.5	1.543
	1545.	284.7	1.542
	1546.	284.9	1.541
	1547.	285.1	1.539
	1548.	285.2	1.538
	1549.	285.3	1.537
	1550.	285.5	1.536
	1551.	285.6	1.535
	1552.	285.8	1.534
	1553.	285.9	1.533
	1554.	286.1	1.532
	1555.	286.2	1.530
	1556.	286.3	1.529
	1557.	286.4	1.528
	1558.	286.6	1.527
	1559.	286.8	1.526
	1560.	287.0	1.525
	1561.	287.2	1.524
	1562.	287.3	1.523
	1563.	287.5	1.522
	1564.	287.7	1.521
	1565.	287.8	1.520
	1566.	288.1	1.519
	1567.	288.2	1.518
	1568.	288.4	1.517
	1569.	288.6	1.516
	1570.	288.8	1.515
	1571.	288.9	1.514
	1572.	289.1	1.513
	1573.	289.3	1.512
	1574.	289.4	1.511
	1575.	289.5	1.511
	1576.	289.6	1.510
	1577.	289.9	1.509
	1578.	290.0	1.508
	1579.	290.1	1.507
	1580.	290.2	1.506
	1581.	290.3	1.505
	1582.	290.4	1.504
	1583.	290.6	1.503
	1584.	290.8	1.503
	1585.	291.0	1.502
	1586.	291.1	1.501
	1587.	291.2	1.500
	1588.	291.4	1.499
	1589.	291.5	1.499
	1590.	291.8	1.498
	1591.	291.9	1.498
	1592.	292.0	1.496
	1593.	292.1	1.496
	1594.	292.2	1.495
	1595.	292.5	1.494
	1596.	292.6	1.493
	1597.	292.8	1.493
	1598.	292.9	1.492
	1599.	293.2	1.491
	1600.	293.4	1.490
	1601.	293.6	1.489
	1602.	293.7	1.489
	1603.	293.9	1.488
	1604.	294.1	1.487
	1605.	294.4	1.486
	1606.	294.5	1.485
	1607.	294.7	1.484
	1608.	294.9	1.484
	1609.	295.1	1.483
	1610.	295.3	1.482
	1611.	295.4	1.481
	1612.	295.6	1.481
	1613.	295.8	1.480
	1614.	296.0	1.479
	1615.	296.1	1.478
	1616.	296.3	1.477
	1617.	296.5	1.477
	1618.	296.8	1.476
	1619.	297.0	1.475
	1620.	297.2	1.474
	1621.	297.4	1.473
	1622.	297.7	1.472
	1623.	297.8	1.471
	1624.	298.1	1.471
	1625.	298.4	1.470
	1626.	298.5	1.469
	1627.	298.7	1.467
	1628.	298.9	1.467
	1629.	299.1	1.466
	1630.	299.3	1.465
	1631.	299.5	1.464
	1632.	299.7	1.463
	1633.	299.8	1.462
	1634.	299.8	1.462
	1635.	300.0	1.461
	1636.	300.1	1.460
	1637.	300.4	1.459
	1638.	300.5	1.458
	1639.	300.6	1.458
	1640.	300.7	1.457
	1641.	300.8	1.457
	1642.	301.0	1.456
	1643.	301.1	1.455
	1644.	301.3	1.454
	1645.	301.4	1.453
	1646.	301.6	1.453
	1647.	301.6	1.453
	1648.	301.7	1.452
	1649.	301.8	1.451
	1650.	301.9	1.451
	1651.	302.0	1.450
	1652.	302.1	1.449
	1653.	302.2	1.449
	1654.	302.3	1.448
	1655.	302.3	1.448
	1656.	302.5	1.447
	1657.	302.7	1.447
	1658.	302.8	1.446
	1659.	303.0	1.446
	1660.	303.1	1.445
	1661.	303.3	1.444
	1662.	303.3	1.444
	1663.	303.4	1.444
	1664.	303.7	1.443
	1665.	303.8	1.443
	1666.	303.9	1.442
	1667.	304.1	1.442
	1668.	304.3	1.442
	1669.	304.3	1.441
	1670.	304.5	1.441
	1671.	304.7	1.440
	1672.	305.0	1.440
	1673.	305.2	1.440
	1674.	305.4	1.439
	1675.	305.7	1.439
	1676.	305.9	1.438
	1677.	306.1	1.438
	1678.	306.3	1.438
	1679.	306.6	1.437
	1680.	306.7	1.437
	1681.	306.9	1.436
	1682.	307.0	1.436
	1683.	307.2	1.435
	1684.	307.4	1.435
	1685.	307.7	1.435
	1686.	307.9	1.434
	1687.	307.9	1.434
	1688.	308.2	1.433
	1689.	308.4	1.433
	1690.	308.8	1.433
	1691.	308.9	1.432
	1692.	309.2	1.432
	1693.	309.4	1.431
	1694.	309.7	1.431
	1695.	309.8	1.430
	1696.	310.0	1.430
	1697.	310.2	1.430
	1698.	310.4	1.429
	1699.	310.6	1.429
	1700.	310.8	1.428
	1701.	311.0	1.428
	1702.	311.1	1.428
	1703.	311.2	1.427
	1704.	311.4	1.427
	1705.	311.4	1.427
	1706.	311.7	1.426
	1707.	311.7	1.425
	1708.	312.0	1.425
	1709.	312.2	1.424
	1710.	312.3	1.424
	1711.	312.4	1.424
	1712.	312.5	1.423
	1713.	312.7	1.423
	1714.	312.9	1.423
	1715.	313.0	1.422
	1716.	313.1	1.422
	1717.	313.3	1.422
	1718.	313.6	1.421
	1719.	313.6	1.421
	1720.	313.7	1.421
	1721.	313.8	1.420
	1722.	313.9	1.420
	1723.	314.1	1.420
	1724.	314.2	1.419
	1725.	314.3	1.419
	1726.	314.5	1.419
	1727.	314.6	1.418
	1728.	314.8	1.418
	1729.	314.9	1.418
	1730.	315.1	1.417
	1731.	315.2	1.417
	1732.	315.3	1.417
	1733.	315.5	1.416
	1734.	315.6	1.416
	1735.	315.7	1.416
	1736.	316.0	1.415
	1737.	316.0	1.415
	1738.	316.2	1.415
	1739.	316.2	1.414
	1740.	316.4	1.414
	1741.	316.6	1.414
	1742.	316.8	1.413
	1743.	316.9	1.413
	1744.	317.1	1.413
	1745.	317.3	1.413
	1746.	317.5	1.412
	1747.	317.7	1.412
	1748.	317.8	1.411
	1749.	318.0	1.411
	1750.	318.2	1.411
	1751.	318.6	1.410
	1752.	318.7	1.410
	1753.	318.9	1.410
	1754.	319.1	1.409
	1755.	319.2	1.409
	1756.	319.4	1.409
	1757.	319.6	1.409
	1758.	319.7	1.408
	1759.	320.0	1.408
	1760.	320.2	1.408
	1761.	320.3	1.407
	1762.	320.5	1.407
	1763.	320.9	1.406
	1764.	321.1	1.406
	1765.	321.2	1.405
	1766.	321.4	1.405
	1767.	321.6	1.405
	1768.	321.8	1.405
	1769.	322.0	1.404
	1770.	322.1	1.404
	1771.	322.3	1.403
	1772.	322.5	1.403
	1773.	322.7	1.403
	1774.	322.8	1.402
	1775.	323.1	1.402
	1776.	323.2	1.402
	1777.	323.4	1.401
	1778.	323.5	1.400
	1779.	323.7	1.400
	1780.	324.0	1.400
	1781.	324.1	1.399
	1782.	324.3	1.399
	1783.	324.5	1.399
	1784.	324.7	1.399
	1785.	324.8	1.398
	1786.	325.0	1.398
	1787.	325.0	1.397
	1788.	325.2	1.397
	1789.	325.4	1.397
	1790.	325.6	1.396
	1791.	325.6	1.396
	1792.	325.8	1.396
	1793.	325.9	1.395
	1794.	326.0	1.395
	1795.	326.1	1.394
	1796.	326.3	1.394
	1797.	326.5	1.394
	1798.	326.6	1.393
	1799.	326.7	1.393
	1800.	326.9	1.393
	1801.	327.0	1.392
	1802.	327.2	1.392
	1803.	327.3	1.392
	1804.	327.4	1.391
	1805.	327.5	1.391
	1806.	327.7	1.390
	1807.	327.9	1.390
	1808.	328.0	1.390
	1809.	328.2	1.390
	1810.	328.5	1.389
	1811.	328.5	1.389
	1812.	328.7	1.389
	1813.	328.9	1.388
	1814.	329.1	1.388
	1815.	329.2	1.387
	1816.	329.4	1.387
	1817.	329.7	1.387
	1818.	329.8	1.386
	1819.	330.0	1.386
	1820.	330.3	1.385
	1821.	330.5	1.385
	1822.	330.7	1.385
	1823.	330.9	1.385
	1824.	331.1	1.385
	1825.	331.3	1.384
	1826.	331.6	1.384
	1827.	331.7	1.383
	1828.	331.9	1.383
	1829.	332.0	1.382
	1830.	332.2	1.382
	1831.	332.3	1.382
	1832.	332.5	1.381
	1833.	332.6	1.381
	1834.	332.7	1.381
	1835.	332.9	1.380
	1836.	333.1	1.380
	1837.	333.3	1.380
	1838.	333.5	1.379
	1839.	333.6	1.379
	1840.	333.7	1.378
	1841.	333.9	1.378
	1842.	334.1	1.378
	1843.	334.2	1.377
	1844.	334.4	1.377
	1845.	334.5	1.376
	1846.	334.7	1.376
	1847.	334.8	1.375
	1848.	335.0	1.375
	1849.	335.1	1.375
	1850.	335.2	1.374
	1851.	335.4	1.374
	1852.	335.6	1.374
	1853.	335.8	1.373
	1854.	335.8	1.373
	1855.	336.0	1.373
	1856.	336.1	1.372
	1857.	336.2	1.372
	1858.	336.4	1.371
	1859.	336.7	1.371
	1860.	336.9	1.370
	1861.	337.0	1.370
	1862.	337.2	1.370
	1863.	337.3	1.369
	1864.	337.5	1.369
	1865.	337.7	1.368
	1866.	337.8	1.368
	1867.	337.9	1.367
	1868.	338.2	1.367
	1869.	338.4	1.367
	1870.	338.5	1.366
	1871.	338.7	1.366
	1872.	338.8	1.365
	1873.	338.9	1.365
	1874.	339.1	1.365
	1875.	339.2	1.364
	1876.	339.4	1.364
	1877.	339.6	1.363
	1878.	339.8	1.363
	1879.	340.0	1.362
	1880.	340.2	1.362
	1881.	340.4	1.362
	1882.	340.6	1.361
	1883.	340.8	1.361
	1884.	341.0	1.360
	1885.	341.1	1.360
	1886.	341.3	1.360
	1887.	341.4	1.359
	1888.	341.6	1.359
	1889.	341.8	1.358
	1890.	342.0	1.358
	1891.	342.0	1.357
	1892.	342.3	1.356
	1893.	342.4	1.356
	1894.	342.7	1.356
	1895.	342.9	1.355
	1896.	343.1	1.355
	1897.	343.3	1.354
	1898.	343.4	1.354
	1899.	343.7	1.353
	1900.	343.8	1.353
	1901.	343.8	1.352
	1902.	344.0	1.352
	1903.	344.1	1.352
	1904.	344.3	1.351
	1905.	344.4	1.351
	1906.	344.6	1.350
	1907.	344.7	1.350
	1908.	344.9	1.349
	1909.	345.0	1.349
	1910.	345.3	1.348
	1911.	345.4	1.348
	1912.	345.5	1.347
	1913.	345.7	1.347
	1914.	345.8	1.346
	1915.	346.0	1.346
	1916.	346.2	1.346
	1917.	346.3	1.345
	1918.	346.5	1.345
	1919.	346.7	1.344
	1920.	346.8	1.344
	1921.	347.0	1.343
	1922.	347.2	1.343
	1923.	347.3	1.342
	1924.	347.5	1.342
	1925.	347.7	1.341
	1926.	347.9	1.340
	1927.	348.1	1.340
	1928.	348.3	1.340
	1929.	348.5	1.339
	1930.	348.7	1.339
	1931.	348.8	1.338
	1932.	348.9	1.338
	1933.	349.2	1.337
	1934.	349.3	1.337
	1935.	349.5	1.336
	1936.	349.8	1.336
	1937.	350.0	1.335
	1938.	350.1	1.335
	1939.	350.3	1.334
	1940.	350.4	1.333
	1941.	350.5	1.333
	1942.	350.8	1.332
	1943.	350.9	1.332
	1944.	351.1	1.331
	1945.	351.3	1.331
	1946.	351.4	1.330
	1947.	351.5	1.330
	1948.	351.7	1.329
	1949.	351.8	1.328
	1950.	352.1	1.328
	1951.	352.2	1.327
	1952.	352.4	1.327
	1953.	352.5	1.327
	1954.	352.6	1.326
	1955.	352.9	1.325
	1956.	353.0	1.325
	1957.	353.2	1.324
	1958.	353.3	1.323
	1959.	353.5	1.323
	1960.	353.6	1.322
	1961.	353.7	1.322
	1962.	353.7	1.321
	1963.	353.9	1.320
	1964.	354.0	1.320
	1965.	354.2	1.320
	1966.	354.4	1.319
	1967.	354.6	1.318
	1968.	354.7	1.318
	1969.	354.9	1.317
	1970.	355.1	1.317
	1971.	355.2	1.316
	1972.	355.4	1.316
	1973.	355.6	1.315
	1974.	355.8	1.315
	1975.	356.0	1.314
	1976.	356.2	1.313
	1977.	356.4	1.313
	1978.	356.6	1.312
	1979.	356.8	1.311
	1980.	356.9	1.311
	1981.	357.0	1.310
	1982.	357.2	1.309
	1983.	357.3	1.309
	1984.	357.6	1.308
	1985.	357.8	1.308
	1986.	358.0	1.307
	1987.	358.2	1.307
	1988.	358.3	1.306
	1989.	358.6	1.305
	1990.	358.8	1.305
	1991.	359.0	1.304
	1992.	359.1	1.304
	1993.	359.2	1.303
	1994.	359.4	1.302
	1995.	359.6	1.301
	1996.	359.7	1.301
	1997.	359.9	1.300
	1998.	360.0	1.300
	1999.	360.2	1.299
	2000.	360.4	1.299
	2001.	360.5	1.298
	2002.	360.7	1.297
	2003.	360.8	1.296
	2004.	361.0	1.296
	2005.	361.2	1.295
	2006.	361.3	1.294
	2007.	361.5	1.294
	2008.	361.7	1.293
	2009.	361.9	1.293
	2010.	362.0	1.292
	2011.	362.2	1.292
	2012.	362.3	1.291
	2013.	362.5	1.290
	2014.	362.7	1.289
	2015.	362.9	1.289
	2016.	363.0	1.288
	2017.	363.2	1.288
	2018.	363.4	1.287
	2019.	363.5	1.286
	2020.	363.7	1.285
	2021.	363.8	1.285
	2022.	363.9	1.284
	2023.	364.0	1.283
	2024.	364.2	1.283
	2025.	364.4	1.282
	2026.	364.7	1.281
	2027.	364.8	1.281
	2028.	364.9	1.280
	2029.	365.2	1.279
	2030.	365.3	1.279
	2031.	365.4	1.278
	2032.	365.6	1.277
	2033.	365.8	1.276
	2034.	365.9	1.275
	2035.	366.1	1.274
	2036.	366.2	1.274
	2037.	366.4	1.273
	2038.	366.6	1.273
	2039.	366.7	1.272
	2040.	366.8	1.271
	2041.	366.9	1.270
	2042.	367.2	1.270
	2043.	367.3	1.269
	2044.	367.6	1.269
	2045.	367.6	1.268
	2046.	367.8	1.267
	2047.	367.9	1.266
	2048.	368.0	1.265
	2049.	368.2	1.265
	2050.	368.5	1.263
	2051.	368.6	1.263
	2052.	368.9	1.262
	2053.	369.1	1.261
	2054.	369.3	1.261
	2055.	369.4	1.260
	2056.	369.5	1.259
	2057.	369.7	1.258
	2058.	369.8	1.257
	2059.	370.0	1.257
	2060.	370.2	1.256
	2061.	370.4	1.255
	2062.	370.6	1.254
	2063.	370.8	1.253
	2064.	371.0	1.253
	2065.	371.2	1.252
	2066.	371.3	1.251
	2067.	371.6	1.250
	2068.	371.7	1.249
	2069.	371.9	1.248
	2070.	372.1	1.248
	2071.	372.2	1.247
	2072.	372.4	1.246
	2073.	372.6	1.245
	2074.	372.8	1.244
	2075.	372.9	1.244
	2076.	373.1	1.243
	2077.	373.3	1.242
	2078.	373.5	1.241
	2079.	373.7	1.240
	2080.	373.9	1.239
	2081.	374.1	1.238
	2082.	374.3	1.237
	2083.	374.4	1.236
	2084.	374.6	1.235
	2085.	374.7	1.234
	2086.	374.7	1.234
	2087.	374.9	1.233
	2088.	375.0	1.231
	2089.	375.2	1.231
	2090.	375.3	1.230
	2091.	375.6	1.230
	2092.	375.7	1.229
	2093.	375.9	1.228
	2094.	376.0	1.227
	2095.	376.2	1.226
	2096.	376.3	1.225
	2097.	376.4	1.224
	2098.	376.6	1.223
	2099.	376.7	1.222
	2100.	376.8	1.221
	2101.	376.9	1.220
	2102.	377.1	1.219
	2103.	377.3	1.218
	2104.	377.5	1.217
	2105.	377.6	1.216
	2106.	377.8	1.215
	2107.	378.0	1.214
	2108.	378.1	1.214
	2109.	378.2	1.212
	2110.	378.4	1.212
	2111.	378.6	1.211
	2112.	378.8	1.209
	2113.	379.0	1.209
	2114.	379.3	1.207
	2115.	379.5	1.206
	2116.	379.6	1.205
	2117.	379.8	1.204
	2118.	379.9	1.204
	2119.	380.1	1.202
	2120.	380.3	1.202
	2121.	380.5	1.201
	2122.	380.6	1.199
	2123.	380.8	1.198
	2124.	381.0	1.197
	2125.	381.2	1.197
	2126.	381.3	1.195
	2127.	381.5	1.194
	2128.	381.6	1.194
	2129.	381.7	1.193
	2130.	381.9	1.191
	2131.	382.0	1.191
	2132.	382.2	1.190
	2133.	382.4	1.188
	2134.	382.6	1.187
	2135.	382.9	1.186
	2136.	383.0	1.185
	2137.	383.3	1.184
	2138.	383.4	1.183
	2139.	383.5	1.182
	2140.	383.7	1.181
	2141.	383.9	1.180
	2142.	384.0	1.179
	2143.	384.3	1.178
	2144.	384.5	1.177
	2145.	384.6	1.176
	2146.	384.8	1.175
	2147.	384.9	1.173
	2148.	385.0	1.172
	2149.	385.2	1.172
	2150.	385.3	1.170
	2151.	385.5	1.169
	2152.	385.7	1.168
	2153.	385.8	1.167
	2154.	385.9	1.166
	2155.	386.0	1.165
	2156.	386.3	1.164
	2157.	386.4	1.163
	2158.	386.6	1.162
	2159.	386.7	1.160
	2160.	386.9	1.159
	2161.	387.1	1.158
	2162.	387.2	1.157
	2163.	387.4	1.156
	2164.	387.5	1.155
	2165.	387.6	1.154
	2166.	387.8	1.153
	2167.	388.0	1.152
	2168.	388.2	1.151
	2169.	388.4	1.150
	2170.	388.5	1.149
	2171.	388.6	1.147
	2172.	388.9	1.146
	2173.	389.1	1.145
	2174.	389.3	1.144
	2175.	389.4	1.143
	2176.	389.6	1.142
	2177.	389.8	1.141
	2178.	390.0	1.140
	2179.	390.1	1.139
	2180.	390.4	1.138
	2181.	390.4	1.137
	2182.	390.6	1.135
	2183.	390.8	1.135
	2184.	390.9	1.134
	2185.	391.1	1.132
	2186.	391.3	1.131
	2187.	391.4	1.130
	2188.	391.6	1.129
	2189.	391.8	1.128
	2190.	391.9	1.127
	2191.	392.0	1.125
	2192.	392.2	1.124
	2193.	392.5	1.123
	2194.	392.6	1.122
	2195.	392.7	1.121
	2196.	392.9	1.120
	2197.	393.1	1.119
	2198.	393.2	1.118
	2199.	393.4	1.117
	2200.	393.6	1.116
	2201.	393.8	1.115
	2202.	393.9	1.114
	2203.	394.1	1.113
	2204.	394.3	1.111
	2205.	394.4	1.111
	2206.	394.6	1.109
	2207.	394.7	1.108
	2208.	394.9	1.107
	2209.	395.0	1.106
	2210.	395.3	1.105
	2211.	395.5	1.104
	2212.	395.7	1.103
	2213.	395.9	1.102
	2214.	396.0	1.101
	2215.	396.2	1.100
	2216.	396.3	1.099
	2217.	396.5	1.098
	2218.	396.7	1.097
	2219.	396.8	1.096
	2220.	396.9	1.095
	2221.	397.2	1.094
	2222.	397.3	1.093
	2223.	397.5	1.091
	2224.	397.7	1.090
	2225.	397.8	1.089
	2226.	398.0	1.088
	2227.	398.1	1.087
	2228.	398.3	1.086
	2229.	398.5	1.085
	2230.	398.7	1.084
	2231.	398.8	1.083
	2232.	399.0	1.082
	2233.	399.1	1.081
	2234.	399.3	1.080
	2235.	399.4	1.079
	2236.	399.6	1.078
	2237.	399.8	1.077
	2238.	399.9	1.076
	2239.	400.1	1.076
	2240.	400.3	1.075
	2241.	400.4	1.074
	2242.	400.5	1.073
	2243.	400.7	1.072
	2244.	400.9	1.071
	2245.	401.0	1.070
	2246.	401.2	1.069
	2247.	401.4	1.068
	2248.	401.5	1.067
	2249.	401.7	1.067
	2250.	401.7	1.065
	2251.	401.9	1.064
	2252.	402.1	1.064
	2253.	402.4	1.063
	2254.	402.5	1.062
	2255.	402.7	1.061
	2256.	402.8	1.060
	2257.	402.9	1.060
	2258.	403.1	1.059
	2259.	403.3	1.058
	2260.	403.5	1.057
	2261.	403.6	1.056
	2262.	403.9	1.055
	2263.	404.1	1.055
	2264.	404.2	1.054
	2265.	404.4	1.053
	2266.	404.5	1.052
	2267.	404.6	1.052
	2268.	404.8	1.051
	2269.	404.9	1.050
	2270.	405.2	1.050
	2271.	405.2	1.049
	2272.	405.4	1.048
	2273.	405.6	1.047
	2274.	405.9	1.046
	2275.	406.0	1.046
	2276.	406.2	1.045
	2277.	406.4	1.044
	2278.	406.6	1.044
	2279.	406.7	1.043
	2280.	406.9	1.042
	2281.	407.0	1.042
	2282.	407.2	1.041
	2283.	407.3	1.041
	2284.	407.4	1.040
	2285.	407.6	1.039
	2286.	407.8	1.039
	2287.	407.9	1.038
	2288.	408.1	1.038
	2289.	408.3	1.037
	2290.	408.5	1.037
	2291.	408.7	1.036
	2292.	408.9	1.036
	2293.	409.1	1.035
	2294.	409.3	1.034
	2295.	409.4	1.034
	2296.	409.7	1.033
	2297.	409.8	1.033
	2298.	410.1	1.032
	2299.	410.3	1.032
	2300.	410.4	1.032
	2301.	410.6	1.031
	2302.	410.7	1.031
	2303.	410.9	1.031
	2304.	410.9	1.030
	2305.	411.1	1.030
	2306.	411.3	1.029
	2307.	411.5	1.029
	2308.	411.5	1.028
	2309.	411.7	1.028
	2310.	411.9	1.028
	2311.	412.1	1.027
	2312.	412.3	1.027
	2313.	412.4	1.027
	2314.	412.6	1.027
	2315.	412.8	1.026
	2316.	413.0	1.026
	2317.	413.0	1.026
	2318.	413.1	1.025
	2319.	413.3	1.025
	2320.	413.5	1.025
	2321.	413.5	1.025
	2322.	413.7	1.025
	2323.	413.9	1.024
	2324.	414.0	1.024
	2325.	414.2	1.024
	2326.	414.3	1.024
	2327.	414.6	1.023
	2328.	414.8	1.023
	2329.	414.9	1.023
	2330.	415.1	1.023
	2331.	415.2	1.023
	2332.	415.5	1.022
	2333.	415.6	1.022
	2334.	415.7	1.022
	2335.	415.9	1.022
	2336.	416.0	1.022
	2337.	416.2	1.022
	2338.	416.4	1.021
	2339.	416.6	1.021
	2340.	416.8	1.021
	2341.	417.0	1.021
	2342.	417.3	1.021
	2343.	417.4	1.021
	2344.	417.6	1.021
	2345.	417.8	1.021
	2346.	418.0	1.021
	2347.	418.2	1.020
	2348.	418.3	1.020
	2349.	418.5	1.021
	2350.	418.7	1.020
	2351.	418.9	1.020
	2352.	419.1	1.020
	2353.	419.3	1.020
	2354.	419.4	1.019
	2355.	419.6	1.019
	2356.	419.7	1.019
	2357.	419.8	1.019
	2358.	420.1	1.019
	2359.	420.3	1.019
	2360.	420.5	1.020
	2361.	420.6	1.019
	2362.	420.7	1.019
	2363.	420.9	1.019
	2364.	421.1	1.019
	2365.	421.3	1.019
	2366.	421.4	1.019
	2367.	421.5	1.019
	2368.	421.7	1.018
	2369.	421.9	1.019
	2370.	422.0	1.019
	2371.	422.2	1.018
	2372.	422.5	1.018
	2373.	422.7	1.019
	2374.	422.8	1.019
	2375.	423.0	1.019
	2376.	423.1	1.018
	2377.	423.2	1.018
	2378.	423.4	1.018
	2379.	423.5	1.019
	2380.	423.6	1.019
	2381.	423.7	1.019
	2382.	423.9	1.019
	2383.	424.0	1.019
	2384.	424.2	1.019
	2385.	424.4	1.019
	2386.	424.5	1.019
	2387.	424.7	1.019
	2388.	424.9	1.019
	2389.	425.2	1.019
	2390.	425.3	1.019
	2391.	425.4	1.019
	2392.	425.6	1.019
	2393.	425.8	1.018
	2394.	425.8	1.018
	2395.	426.1	1.018
	2396.	426.2	1.019
	2397.	426.3	1.018
	2398.	426.4	1.018
	2399.	426.7	1.018
	2400.	426.8	1.018
	2401.	427.0	1.018
	2402.	427.1	1.018
	2403.	427.2	1.017
	2404.	427.4	1.018
	2405.	427.7	1.018
	2406.	427.9	1.018
	2407.	428.1	1.018
	2408.	428.3	1.018
	2409.	428.4	1.018
	2410.	428.6	1.018
	2411.	428.7	1.018
	2412.	428.8	1.018
	2413.	429.0	1.018
	2414.	429.2	1.018
	2415.	429.3	1.018
	2416.	429.5	1.018
	2417.	429.7	1.018
	2418.	429.8	1.018
	2419.	430.1	1.018
	2420.	430.3	1.019
	2421.	430.5	1.018
	2422.	430.7	1.018
	2423.	430.8	1.018
	2424.	431.0	1.019
	2425.	431.2	1.018
	2426.	431.4	1.018
	2427.	431.6	1.018
	2428.	431.7	1.018
	2429.	431.9	1.017
	2430.	432.0	1.018
	2431.	432.2	1.018
	2432.	432.3	1.018
	2433.	432.4	1.019
	2434.	432.5	1.019
	2435.	432.8	1.018
	2436.	432.9	1.018
	2437.	433.1	1.018
	2438.	433.2	1.018
	2439.	433.4	1.018
	2440.	433.6	1.018
	2441.	433.7	1.019
	2442.	433.8	1.019
	2443.	434.1	1.019
	2444.	434.2	1.020
	2445.	434.2	1.019
	2446.	434.5	1.019
	2447.	434.6	1.019
	2448.	434.7	1.019
	2449.	434.9	1.019
	2450.	435.1	1.018
	2451.	435.2	1.018
	2452.	435.4	1.018
	2453.	435.6	1.018
	2454.	435.8	1.018
	2455.	435.9	1.018
	2456.	436.1	1.018
	2457.	436.4	1.018
	2458.	436.5	1.018
	2459.	436.7	1.018
	2460.	436.9	1.018
	2461.	437.0	1.018
	2462.	437.3	1.019
	2463.	437.4	1.018
	2464.	437.6	1.018
	2465.	437.8	1.018
	2466.	438.0	1.019
	2467.	438.1	1.019
	2468.	438.4	1.019
	2469.	438.5	1.019
	2470.	438.7	1.019
	2471.	438.8	1.019
	2472.	439.0	1.019
	2473.	439.2	1.019
	2474.	439.4	1.019
	2475.	439.6	1.019
	2476.	439.8	1.019
	2477.	440.1	1.019
	2478.	440.2	1.019
	2479.	440.4	1.019
	2480.	440.6	1.019
	2481.	440.8	1.019
	2482.	440.8	1.019
	2483.	441.0	1.019
	2484.	441.1	1.018
	2485.	441.3	1.019
	2486.	441.4	1.019
	2487.	441.5	1.018
	2488.	441.6	1.018
	2489.	441.8	1.019
	2490.	442.0	1.019
	2491.	442.2	1.018
	2492.	442.3	1.018
	2493.	442.4	1.019
	2494.	442.6	1.018
	2495.	442.8	1.018
	2496.	442.8	1.018
	2497.	443.0	1.019
	2498.	443.1	1.018
	2499.	443.2	1.018
	2500.	443.3	1.019
	2501.	443.5	1.019
	2502.	443.7	1.019
	2503.	443.9	1.019
	2504.	444.0	1.019
	2505.	444.1	1.019
	2506.	444.4	1.019
	2507.	444.6	1.019
	2508.	444.8	1.019
	2509.	445.0	1.019
	2510.	445.2	1.019
	2511.	445.4	1.019
	2512.	445.6	1.019
	2513.	445.7	1.019
	2514.	446.0	1.019
	2515.	446.2	1.018
	2516.	446.4	1.019
	2517.	446.6	1.019
	2518.	446.7	1.019
	2519.	446.9	1.018
	2520.	447.0	1.019
	2521.	447.1	1.019
	2522.	447.2	1.019
	2523.	447.4	1.019
	2524.	447.5	1.019
	2525.	447.7	1.019
	2526.	447.9	1.020
	2527.	448.1	1.019
	2528.	448.3	1.019
	2529.	448.4	1.019
	2530.	448.5	1.019
	2531.	448.7	1.019
	2532.	449.0	1.019
	2533.	449.1	1.019
	2534.	449.2	1.019
	2535.	449.5	1.019
	2536.	449.6	1.019
	2537.	449.7	1.019
	2538.	449.9	1.019
	2539.	450.1	1.019
	2540.	450.3	1.019
	2541.	450.4	1.019
	2542.	450.5	1.019
	2543.	450.7	1.019
	2544.	450.9	1.019
	2545.	451.0	1.019
	2546.	451.3	1.020
	2547.	451.5	1.019
	2548.	451.6	1.019
	2549.	451.8	1.019
	2550.	452.0	1.019
	2551.	452.1	1.019
	2552.	452.2	1.019
	2553.	452.4	1.019
	2554.	452.5	1.019
	2555.	452.7	1.019
	2556.	452.8	1.019
	2557.	453.1	1.019
	2558.	453.2	1.019
	2559.	453.3	1.019
	2560.	453.5	1.019
	2561.	453.6	1.019
	2562.	453.8	1.020
	2563.	453.9	1.020
	2564.	454.1	1.020
	2565.	454.3	1.020
	2566.	454.5	1.020
	2567.	454.6	1.020
	2568.	454.7	1.019
	2569.	454.9	1.019
	2570.	455.1	1.019
	2571.	455.2	1.020
	2572.	455.3	1.020
	2573.	455.6	1.019
	2574.	455.7	1.019
	2575.	455.9	1.019
	2576.	456.1	1.019
	2577.	456.3	1.020
	2578.	456.4	1.020
	2579.	456.6	1.020
	2580.	456.8	1.020
	2581.	456.9	1.020
	2582.	457.2	1.020
	2583.	457.3	1.020
	2584.	457.5	1.020
	2585.	457.8	1.020
	2586.	457.9	1.020
	2587.	458.1	1.020
	2588.	458.2	1.020
	2589.	458.5	1.020
	2590.	458.7	1.020
	2591.	458.9	1.020
	2592.	459.1	1.020
	2593.	459.2	1.020
	2594.	459.4	1.020
	2595.	459.5	1.020
	2596.	459.7	1.020
	2597.	459.9	1.019
	2598.	460.0	1.020
	2599.	460.1	1.020
	2600.	460.3	1.020
	2601.	460.5	1.020
	2602.	460.6	1.020
	2603.	460.7	1.019
	2604.	460.8	1.020
	2605.	461.0	1.020
	2606.	461.3	1.020
	2607.	461.4	1.020
	2608.	461.6	1.020
	2609.	461.8	1.019
	2610.	462.0	1.019
	2611.	462.1	1.020
	2612.	462.2	1.020
	2613.	462.4	1.020
	2614.	462.5	1.020
	2615.	462.6	1.020
	2616.	462.9	1.019
	2617.	463.1	1.020
	2618.	463.2	1.020
	2619.	463.3	1.020
	2620.	463.5	1.020
	2621.	463.7	1.020
	2622.	463.8	1.020
	2623.	464.0	1.020
	2624.	464.2	1.020
	2625.	464.3	1.021
	2626.	464.5	1.021
	2627.	464.7	1.021
	2628.	465.0	1.021
	2629.	465.0	1.021
	2630.	465.2	1.021
	2631.	465.4	1.021
	2632.	465.5	1.021
	2633.	465.7	1.021
	2634.	465.8	1.021
	2635.	465.9	1.021
	2636.	466.1	1.021
	2637.	466.3	1.021
	2638.	466.6	1.021
	2639.	466.8	1.021
	2640.	467.0	1.021
	2641.	467.1	1.021
	2642.	467.2	1.021
	2643.	467.4	1.021
	2644.	467.6	1.020
	2645.	467.7	1.021
	2646.	467.9	1.021
	2647.	468.1	1.021
	2648.	468.2	1.021
	2649.	468.4	1.021
	2650.	468.6	1.021
	2651.	468.8	1.021
	2652.	469.0	1.021
	2653.	469.2	1.021
	2654.	469.3	1.021
	2655.	469.4	1.021
	2656.	469.5	1.021
	2657.	469.7	1.021
	2658.	469.9	1.021
	2659.	470.1	1.020
	2660.	470.3	1.020
	2661.	470.4	1.021
	2662.	470.6	1.021
	2663.	470.8	1.021
	2664.	470.9	1.021
	2665.	471.1	1.021
	2666.	471.2	1.021
	2667.	471.3	1.020
	2668.	471.5	1.020
	2669.	471.7	1.021
	2670.	471.9	1.021
	2671.	472.0	1.020
	2672.	472.2	1.020
	2673.	472.4	1.020
	2674.	472.5	1.021
	2675.	472.6	1.020
	2676.	472.8	1.020
	2677.	473.0	1.021
	2678.	473.2	1.021
	2679.	473.4	1.020
	2680.	473.5	1.021
	2681.	473.6	1.021
	2682.	473.7	1.021
	2683.	473.9	1.020
	2684.	474.1	1.020
	2685.	474.3	1.020
	2686.	474.4	1.020
	2687.	474.6	1.020
	2688.	474.8	1.020
	2689.	474.9	1.020
	2690.	475.1	1.021
	2691.	475.3	1.020
	2692.	475.5	1.020
	2693.	475.6	1.021
	2694.	475.9	1.020
	2695.	476.2	1.020
	2696.	476.3	1.021
	2697.	476.4	1.021
	2698.	476.6	1.021
	2699.	476.7	1.021
	2700.	476.8	1.020
	2701.	477.0	1.020
	2702.	477.3	1.020
	2703.	477.4	1.020
	2704.	477.5	1.021
	2705.	477.7	1.020
	2706.	477.8	1.020
	2707.	478.0	1.020
	2708.	478.2	1.021
	2709.	478.4	1.021
	2710.	478.5	1.021
	2711.	478.7	1.021
	2712.	478.9	1.021
	2713.	479.1	1.021
	2714.	479.3	1.021
	2715.	479.5	1.021
	2716.	479.6	1.021
	2717.	479.9	1.021
	2718.	480.0	1.021
	2719.	480.1	1.021
	2720.	480.2	1.021
	2721.	480.4	1.021
	2722.	480.5	1.021
	2723.	480.7	1.021
	2724.	480.9	1.021
	2725.	481.1	1.021
	2726.	481.2	1.021
	2727.	481.4	1.021
	2728.	481.5	1.021
	2729.	481.7	1.021
	2730.	481.9	1.021
	2731.	481.9	1.021
	2732.	482.1	1.020
	2733.	482.3	1.021
	2734.	482.5	1.021
	2735.	482.6	1.021
	2736.	482.8	1.021
	2737.	483.0	1.021
	2738.	483.1	1.021
	2739.	483.2	1.021
	2740.	483.5	1.021
	2741.	483.7	1.021
	2742.	483.8	1.021
	2743.	484.0	1.021
	2744.	484.3	1.021
	2745.	484.4	1.021
	2746.	484.6	1.021
	2747.	484.7	1.021
	2748.	485.0	1.021
	2749.	485.2	1.021
	2750.	485.3	1.021
	2751.	485.4	1.021
	2752.	485.6	1.021
	2753.	485.8	1.022
	2754.	485.9	1.022
	2755.	486.1	1.022
	2756.	486.3	1.021
	2757.	486.5	1.021
	2758.	486.6	1.022
	2759.	486.8	1.022
	2760.	486.9	1.022
	2761.	487.1	1.022
	2762.	487.1	1.022
	2763.	487.2	1.021
	2764.	487.4	1.022
	2765.	487.6	1.022
	2766.	487.8	1.022
	2767.	488.1	1.022
	2768.	488.2	1.021
	2769.	488.4	1.021
	2770.	488.5	1.021
	2771.	488.7	1.021
	2772.	488.9	1.021
	2773.	489.1	1.021
	2774.	489.2	1.021
	2775.	489.4	1.021
	2776.	489.6	1.021
	2777.	489.8	1.021
	2778.	490.0	1.021
	2779.	490.1	1.021
	2780.	490.3	1.022
	2781.	490.5	1.022
	2782.	490.6	1.022
	2783.	490.8	1.022
	2784.	490.9	1.023
	2785.	491.1	1.023
	2786.	491.2	1.023
	2787.	491.4	1.022
	2788.	491.5	1.022
	2789.	491.8	1.022
	2790.	491.9	1.022
	2791.	492.1	1.022
	2792.	492.2	1.021
	2793.	492.4	1.022
	2794.	492.5	1.022
	2795.	492.6	1.022
	2796.	492.9	1.022
	2797.	493.1	1.022
	2798.	493.2	1.022
	2799.	493.4	1.022
	2800.	493.5	1.022
	2801.	493.7	1.021
	2802.	493.8	1.022
	2803.	493.9	1.022
	2804.	494.0	1.022
	2805.	494.3	1.023
	2806.	494.5	1.023
	2807.	494.7	1.022
	2808.	494.9	1.023
	2809.	495.0	1.022
	2810.	495.2	1.022
	2811.	495.3	1.022
	2812.	495.6	1.022
	2813.	495.7	1.021
	2814.	495.9	1.022
	2815.	496.0	1.022
	2816.	496.2	1.022
	2817.	496.2	1.022
	2818.	496.3	1.022
	2819.	496.5	1.022
	2820.	496.7	1.023
	2821.	496.9	1.022
	2822.	497.1	1.023
	2823.	497.3	1.022
	2824.	497.4	1.022
	2825.	497.6	1.023
	2826.	497.7	1.023
	2827.	497.9	1.023
	2828.	498.0	1.022
	2829.	498.2	1.022
	2830.	498.4	1.023
	2831.	498.6	1.023
	2832.	498.8	1.023
	2833.	499.1	1.023
	2834.	499.2	1.022
	2835.	499.4	1.022
	2836.	499.5	1.023
	2837.	499.7	1.023
	2838.	499.9	1.022
	2839.	500.0	1.022
	2840.	500.2	1.022
	2841.	500.3	1.023
	2842.	500.5	1.023
	2843.	500.7	1.022
	2844.	500.9	1.023
	2845.	501.0	1.023
	2846.	501.3	1.023
	2847.	501.5	1.023
	2848.	501.6	1.023
	2849.	501.8	1.023
	2850.	501.9	1.023
	2851.	502.1	1.023
	2852.	502.2	1.023
	2853.	502.5	1.023
	2854.	502.6	1.023
	2855.	502.8	1.023
	2856.	502.9	1.022
	2857.	503.1	1.023
	2858.	503.3	1.023
	2859.	503.5	1.023
	2860.	503.7	1.023
	2861.	503.8	1.023
	2862.	503.9	1.023
	2863.	504.1	1.023
	2864.	504.2	1.023
	2865.	504.5	1.023
	2866.	504.6	1.023
	2867.	504.7	1.023
	2868.	504.8	1.023
	2869.	504.9	1.023
	2870.	505.1	1.023
	2871.	505.2	1.023
	2872.	505.4	1.024
	2873.	505.6	1.024
	2874.	505.8	1.023
	2875.	505.9	1.024
	2876.	506.1	1.024
	2877.	506.3	1.023
	2878.	506.5	1.023
	2879.	506.6	1.023
	2880.	506.9	1.024
	2881.	507.0	1.024
	2882.	507.1	1.024
	2883.	507.2	1.024
	2884.	507.4	1.024
	2885.	507.5	1.024
	2886.	507.7	1.024
	2887.	507.8	1.023
	2888.	508.1	1.024
	2889.	508.2	1.024
	2890.	508.3	1.024
	2891.	508.5	1.023
	2892.	508.6	1.024
	2893.	508.8	1.024
	2894.	509.0	1.024
	2895.	509.3	1.024
	2896.	509.4	1.024
	2897.	509.6	1.024
	2898.	509.8	1.024
	2899.	509.9	1.024
	2900.	510.2	1.024
	2901.	510.3	1.024
	2902.	510.4	1.024
	2903.	510.5	1.024
	2904.	510.7	1.024
	2905.	510.9	1.024
	2906.	511.1	1.025
	2907.	511.2	1.025
	2908.	511.4	1.026
	2909.	511.6	1.026
	2910.	511.8	1.025
	2911.	512.1	1.026
	2912.	512.2	1.026
	2913.	512.5	1.025
	2914.	512.6	1.025
	2915.	512.7	1.025
	2916.	512.9	1.025
	2917.	513.1	1.025
	2918.	513.2	1.025
	2919.	513.4	1.024
	2920.	513.5	1.025
	2921.	513.6	1.025
	2922.	513.8	1.024
	2923.	514.0	1.025
	2924.	514.2	1.025
	2925.	514.3	1.025
	2926.	514.5	1.025
	2927.	514.6	1.025
	2928.	514.9	1.025
	2929.	515.0	1.025
	2930.	515.2	1.025
	2931.	515.4	1.025
	2932.	515.6	1.025
	2933.	515.6	1.024
	2934.	515.7	1.025
	2935.	515.9	1.025
	2936.	516.1	1.025
	2937.	516.3	1.025
	2938.	516.4	1.025
	2939.	516.6	1.025
	2940.	516.7	1.025
	2941.	516.9	1.025
	2942.	517.1	1.024
	2943.	517.3	1.025
	2944.	517.5	1.025
	2945.	517.6	1.025
	2946.	517.8	1.025
	2947.	518.0	1.025
	2948.	518.2	1.025
	2949.	518.3	1.025
	2950.	518.5	1.025
	2951.	518.6	1.025
	2952.	518.8	1.025
	2953.	519.0	1.025
	2954.	519.2	1.025
	2955.	519.3	1.025
	2956.	519.5	1.025
	2957.	519.7	1.025
	2958.	519.9	1.025
	2959.	520.0	1.025
	2960.	520.2	1.025
	2961.	520.3	1.025
	2962.	520.5	1.025
	2963.	520.6	1.025
	2964.	520.8	1.025
	2965.	521.1	1.025
	2966.	521.3	1.026
	2967.	521.4	1.025
	2968.	521.5	1.025
	2969.	521.7	1.026
	2970.	521.9	1.025
	2971.	522.0	1.025
	2972.	522.2	1.026
	2973.	522.4	1.025
	2974.	522.5	1.026
	2975.	522.6	1.026
	2976.	522.8	1.026
	2977.	523.0	1.026
	2978.	523.2	1.026
	2979.	523.4	1.026
	2980.	523.6	1.026
	2981.	523.9	1.026
	2982.	524.0	1.025
	2983.	524.1	1.026
	2984.	524.3	1.026
	2985.	524.5	1.026
	2986.	524.6	1.026
	2987.	524.7	1.026
	2988.	524.8	1.026
	2989.	525.0	1.026
	2990.	525.1	1.026
	2991.	525.2	1.026
	2992.	525.5	1.026
	2993.	525.6	1.026
	2994.	525.8	1.026
	2995.	526.0	1.026
	2996.	526.2	1.026
	2997.	526.4	1.026
	2998.	526.5	1.026
	2999.	526.6	1.026
	3000.	526.8	1.026
	3001.	526.9	1.026
	3002.	527.1	1.026
	3003.	527.3	1.027
	3004.	527.5	1.027
	3005.	527.7	1.027
	3006.	527.8	1.026
	3007.	528.0	1.027
	3008.	528.2	1.027
	3009.	528.4	1.027
	3010.	528.6	1.027
	3011.	528.7	1.026
	3012.	528.9	1.026
	3013.	529.0	1.027
	3014.	529.3	1.027
	3015.	529.4	1.027
	3016.	529.6	1.027
	3017.	529.7	1.026
	3018.	529.9	1.027
	3019.	530.0	1.027
	3020.	530.1	1.027
	3021.	530.2	1.026
	3022.	530.4	1.027
	3023.	530.6	1.027
	3024.	530.8	1.027
	3025.	531.0	1.027
	3026.	531.1	1.027
	3027.	531.3	1.026
	3028.	531.4	1.026
	3029.	531.6	1.026
	3030.	531.8	1.026
	3031.	532.0	1.027
	3032.	532.2	1.026
	3033.	532.4	1.026
	3034.	532.7	1.026
	3035.	532.8	1.026
	3036.	533.0	1.027
	3037.	533.1	1.027
	3038.	533.3	1.027
	3039.	533.4	1.027
	3040.	533.5	1.028
	3041.	533.8	1.028
	3042.	533.9	1.028
	3043.	534.0	1.028
	3044.	534.3	1.028
	3045.	534.4	1.028
	3046.	534.7	1.028
	3047.	534.8	1.028
	3048.	535.0	1.028
	3049.	535.1	1.028
	3050.	535.3	1.028
	3051.	535.4	1.028
	3052.	535.6	1.028
	3053.	535.7	1.028
	3054.	535.9	1.028
	3055.	536.1	1.028
	3056.	536.2	1.028
	3057.	536.4	1.028
	3058.	536.6	1.028
	3059.	536.8	1.028
	3060.	536.8	1.027
	3061.	536.9	1.027
	3062.	537.1	1.027
	3063.	537.3	1.027
	3064.	537.4	1.027
	3065.	537.5	1.027
	3066.	537.7	1.027
	3067.	537.8	1.027
	3068.	538.0	1.028
	3069.	538.1	1.028
	3070.	538.3	1.028
	3071.	538.5	1.028
	3072.	538.7	1.029
	3073.	538.8	1.029
	3074.	539.0	1.029
	3075.	539.2	1.028
	3076.	539.4	1.028
	3077.	539.6	1.028
	3078.	539.8	1.027
	3079.	540.1	1.027
	3080.	540.2	1.028
	3081.	540.5	1.028
	3082.	540.7	1.028
	3083.	540.8	1.029
	3084.	541.0	1.029
	3085.	541.3	1.029
	3086.	541.5	1.029
	3087.	541.7	1.028
	3088.	541.9	1.028
	3089.	542.1	1.028
	3090.	542.2	1.028
	3091.	542.4	1.029
	3092.	542.5	1.029
	3093.	542.6	1.029
	3094.	542.8	1.029
	3095.	542.8	1.028
	3096.	543.1	1.028
	3097.	543.3	1.028
	3098.	543.3	1.028
	3099.	543.4	1.028
	3100.	543.4	1.029
	3101.	543.6	1.029
	3102.	543.7	1.029
	3103.	543.9	1.029
	3104.	544.0	1.029
	3105.	544.2	1.029
	3106.	544.3	1.029
	3107.	544.5	1.029
	3108.	544.7	1.029
	3109.	544.8	1.029
	3110.	545.0	1.029
	3111.	545.1	1.028
	3112.	545.3	1.029
	3113.	545.5	1.029
	3114.	545.7	1.028
	3115.	545.9	1.028
	3116.	546.1	1.028
	3117.	546.3	1.029
	3118.	546.4	1.029
	3119.	546.6	1.029
	3120.	546.9	1.029
	3121.	547.0	1.029
	3122.	547.2	1.028
	3123.	547.5	1.029
	3124.	547.6	1.029
	3125.	547.8	1.029
	3126.	547.9	1.029
	3127.	548.1	1.029
	3128.	548.4	1.029
	3129.	548.5	1.029
	3130.	548.7	1.029
	3131.	548.8	1.029
	3132.	549.0	1.028
	3133.	549.2	1.028
	3134.	549.4	1.029
	3135.	549.5	1.029
	3136.	549.7	1.029
	3137.	549.8	1.029
	3138.	550.0	1.029
	3139.	550.1	1.029
	3140.	550.3	1.030
	3141.	550.4	1.029
	3142.	550.4	1.029
	3143.	550.7	1.029
	3144.	550.8	1.029
	3145.	551.0	1.029
	3146.	551.1	1.029
	3147.	551.3	1.029
	3148.	551.5	1.030
	3149.	551.7	1.030
	3150.	551.7	1.030
	3151.	551.8	1.031
	3152.	552.1	1.031
	3153.	552.2	1.030
	3154.	552.4	1.030
	3155.	552.5	1.029
	3156.	552.8	1.029
	3157.	552.9	1.030
	3158.	553.0	1.030
	3159.	553.2	1.029
	3160.	553.4	1.030
	3161.	553.6	1.030
	3162.	553.8	1.030
	3163.	554.0	1.030
	3164.	554.2	1.030
	3165.	554.3	1.030
	3166.	554.5	1.030
	3167.	554.6	1.029
	3168.	554.8	1.029
	3169.	555.0	1.030
	3170.	555.1	1.029
	3171.	555.3	1.029
	3172.	555.4	1.029
	3173.	555.6	1.029
	3174.	555.7	1.029
	3175.	555.9	1.029
	3176.	556.1	1.029
	3177.	556.2	1.029
	3178.	556.4	1.028
	3179.	556.6	1.028
	3180.	556.7	1.029
	3181.	556.9	1.028
	3182.	557.1	1.028
	3183.	557.2	1.028
	3184.	557.5	1.028
	3185.	557.7	1.028
	3186.	557.8	1.028
	3187.	558.0	1.028
	3188.	558.2	1.028
	3189.	558.5	1.028
	3190.	558.6	1.028
	3191.	558.8	1.028
	3192.	559.0	1.029
	3193.	559.1	1.029
	3194.	559.3	1.028
	3195.	559.4	1.029
	3196.	559.7	1.029
	3197.	559.8	1.029
	3198.	560.0	1.029
	3199.	560.1	1.029
	3200.	560.3	1.029
	3201.	560.5	1.029
	3202.	560.6	1.030
	3203.	560.8	1.030
	3204.	560.9	1.030
	3205.	561.1	1.030
	3206.	561.2	1.030
	3207.	561.4	1.031
	3208.	561.5	1.031
	3209.	561.7	1.030
	3210.	561.9	1.030
	3211.	562.0	1.030
	3212.	562.2	1.030
	3213.	562.3	1.029
	3214.	562.5	1.029
	3215.	562.7	1.029
	3216.	562.8	1.029
	3217.	562.9	1.029
	3218.	563.0	1.029
	3219.	563.2	1.029
	3220.	563.4	1.029
	3221.	563.6	1.029
	3222.	563.7	1.029
	3223.	563.8	1.029
	3224.	564.0	1.029
	3225.	564.2	1.030
	3226.	564.3	1.029
	3227.	564.5	1.029
	3228.	564.7	1.030
	3229.	564.9	1.030
	3230.	565.1	1.030
	3231.	565.3	1.030
	3232.	565.4	1.030
	3233.	565.6	1.030
	3234.	565.8	1.031
	3235.	566.0	1.030
	3236.	566.1	1.030
	3237.	566.2	1.030
	3238.	566.4	1.030
	3239.	566.6	1.030
	3240.	566.8	1.030
	3241.	566.9	1.030
	3242.	567.0	1.029
	3243.	567.2	1.029
	3244.	567.4	1.029
	3245.	567.6	1.030
	3246.	567.8	1.029
	3247.	568.1	1.030
	3248.	568.3	1.030
	3249.	568.4	1.030
	3250.	568.5	1.030
	3251.	568.8	1.030
	3252.	568.9	1.031
	3253.	569.1	1.031
	3254.	569.3	1.031
	3255.	569.4	1.031
	3256.	569.6	1.031
	3257.	569.7	1.031
	3258.	569.8	1.031
	3259.	570.0	1.031
	3260.	570.2	1.030
	3261.	570.3	1.030
	3262.	570.4	1.030
	3263.	570.6	1.030
	3264.	570.7	1.030
	3265.	570.8	1.030
	3266.	571.0	1.031
	3267.	571.1	1.031
	3268.	571.2	1.031
	3269.	571.3	1.031
	3270.	571.5	1.030
	3271.	571.6	1.030
	3272.	571.8	1.030
	3273.	572.0	1.030
	3274.	572.2	1.030
	3275.	572.4	1.030
	3276.	572.7	1.031
	3277.	572.9	1.031
	3278.	573.1	1.031
	3279.	573.3	1.031
	3280.	573.5	1.031
	3281.	573.6	1.031
	3282.	573.9	1.031
	3283.	574.1	1.031
	3284.	574.2	1.031
	3285.	574.3	1.031
	3286.	574.5	1.031
	3287.	574.7	1.031
	3288.	574.9	1.031
	3289.	575.1	1.031
	3290.	575.3	1.031
	3291.	575.4	1.032
	3292.	575.6	1.032
	3293.	575.7	1.032
	3294.	575.9	1.031
	3295.	576.0	1.031
	3296.	576.2	1.031
	3297.	576.3	1.031
	3298.	576.5	1.031
	3299.	576.6	1.031
	3300.	576.8	1.030
	3301.	577.0	1.031
	3302.	577.1	1.030
	3303.	577.2	1.030
	3304.	577.4	1.031
	3305.	577.6	1.031
	3306.	577.8	1.031
	3307.	577.8	1.030
	3308.	578.0	1.031
	3309.	578.2	1.031
	3310.	578.4	1.031
	3311.	578.5	1.032
	3312.	578.7	1.031
	3313.	578.8	1.031
	3314.	579.1	1.031
	3315.	579.3	1.031
	3316.	579.4	1.031
	3317.	579.6	1.031
	3318.	579.8	1.031
	3319.	579.9	1.031
	3320.	580.0	1.032
	3321.	580.2	1.032
	3322.	580.4	1.032
	3323.	580.6	1.032
	3324.	580.7	1.032
	3325.	580.9	1.031
	3326.	581.1	1.032
	3327.	581.4	1.032
	3328.	581.6	1.032
	3329.	581.8	1.032
	3330.	582.0	1.032
	3331.	582.0	1.032
	3332.	582.2	1.033
	3333.	582.3	1.033
	3334.	582.6	1.033
	3335.	582.7	1.033
	3336.	582.8	1.032
	3337.	583.0	1.032
	3338.	583.2	1.032
	3339.	583.3	1.032
	3340.	583.4	1.032
	3341.	583.6	1.031
	3342.	583.8	1.031
	3343.	584.1	1.031
	3344.	584.1	1.031
	3345.	584.3	1.031
	3346.	584.5	1.031
	3347.	584.7	1.031
	3348.	584.9	1.031
	3349.	585.0	1.031
	3350.	585.2	1.031
	3351.	585.3	1.032
	3352.	585.4	1.032
	3353.	585.7	1.032
	3354.	585.8	1.032
	3355.	586.0	1.032
	3356.	586.2	1.032
	3357.	586.4	1.032
	3358.	586.5	1.033
	3359.	586.7	1.032
	3360.	587.0	1.032
	3361.	587.0	1.032
	3362.	587.1	1.031
	3363.	587.2	1.031
	3364.	587.5	1.032
	3365.	587.7	1.032
	3366.	587.8	1.032
	3367.	587.9	1.032
	3368.	588.1	1.032
	3369.	588.3	1.032
	3370.	588.4	1.032
	3371.	588.6	1.032
	3372.	588.7	1.032
	3373.	588.9	1.033
	3374.	589.2	1.033
	3375.	589.3	1.033
	3376.	589.5	1.032
	3377.	589.7	1.032
	3378.	589.9	1.032
	3379.	590.1	1.032
	3380.	590.3	1.033
	3381.	590.5	1.033
	3382.	590.6	1.033
	3383.	590.7	1.033
	3384.	590.9	1.033
	3385.	591.1	1.033
	3386.	591.2	1.032
	3387.	591.4	1.032
	3388.	591.5	1.032
	3389.	591.6	1.033
	3390.	591.7	1.033
	3391.	591.9	1.033
	3392.	592.1	1.033
	3393.	592.4	1.033
	3394.	592.6	1.032
	3395.	592.7	1.032
	3396.	592.9	1.032
	3397.	593.1	1.032
	3398.	593.2	1.033
	3399.	593.3	1.033
	3400.	593.4	1.033
	3401.	593.6	1.033
	3402.	593.8	1.033
	3403.	594.0	1.032
	3404.	594.2	1.032
	3405.	594.3	1.033
	3406.	594.5	1.033
	3407.	594.7	1.033
	3408.	594.9	1.033
	3409.	595.0	1.034
	3410.	595.2	1.033
	3411.	595.4	1.033
	3412.	595.6	1.033
	3413.	595.7	1.033
	3414.	595.9	1.033
	3415.	596.1	1.033
	3416.	596.2	1.033
	3417.	596.4	1.033
	3418.	596.6	1.033
	3419.	596.8	1.033
	3420.	597.0	1.033
	3421.	597.1	1.033
	3422.	597.2	1.033
	3423.	597.4	1.032
	3424.	597.4	1.032
	3425.	597.6	1.032
	3426.	597.9	1.032
	3427.	598.0	1.033
	3428.	598.2	1.033
	3429.	598.4	1.033
	3430.	598.6	1.033
	3431.	598.8	1.033
	3432.	598.9	1.033
	3433.	599.0	1.033
	3434.	599.2	1.033
	3435.	599.3	1.033
	3436.	599.5	1.033
	3437.	599.7	1.033
	3438.	599.8	1.033
	3439.	600.0	1.033
	3440.	600.2	1.033
	3441.	600.4	1.033
	3442.	600.5	1.033
	3443.	600.6	1.033
	3444.	600.7	1.033
	3445.	600.8	1.033
	3446.	601.0	1.033
	3447.	601.2	1.033
	3448.	601.4	1.033
	3449.	601.6	1.033
	3450.	601.8	1.033
	3451.	602.0	1.033
	3452.	602.1	1.033
	3453.	602.3	1.033
	3454.	602.4	1.033
	3455.	602.6	1.033
	3456.	602.8	1.033
	3457.	603.0	1.033
	3458.	603.2	1.033
	3459.	603.4	1.032
	3460.	603.6	1.032
	3461.	603.8	1.033
	3462.	603.9	1.034
	3463.	604.1	1.034
	3464.	604.3	1.034
	3465.	604.4	1.033
	3466.	604.6	1.033
	3467.	604.7	1.033
	3468.	604.8	1.033
	3469.	604.9	1.033
	3470.	605.2	1.033
	3471.	605.4	1.033
	3472.	605.5	1.033
	3473.	605.6	1.033
	3474.	605.8	1.033
	3475.	606.0	1.033
	3476.	606.2	1.033
	3477.	606.3	1.033
	3478.	606.5	1.033
	3479.	606.6	1.033
	3480.	606.8	1.033
	3481.	607.0	1.033
	3482.	607.2	1.033
	3483.	607.3	1.033
	3484.	607.4	1.033
	3485.	607.6	1.033
	3486.	607.8	1.033
	3487.	607.9	1.033
	3488.	608.0	1.033
	3489.	608.2	1.033
	3490.	608.3	1.033
	3491.	608.5	1.033
	3492.	608.7	1.033
	3493.	608.9	1.033
	3494.	609.0	1.033
	3495.	609.1	1.033
	3496.	609.3	1.033
	3497.	609.5	1.033
	3498.	609.8	1.033
	3499.	609.9	1.033
	3500.	610.2	1.033
	3501.	610.4	1.032
	3502.	610.5	1.033
	3503.	610.7	1.033
	3504.	610.9	1.032
	3505.	611.1	1.033
	3506.	611.2	1.033
	3507.	611.4	1.033
	3508.	611.6	1.033
	3509.	611.8	1.033
	3510.	611.9	1.033
	3511.	612.1	1.033
	3512.	612.3	1.032
	3513.	612.4	1.032
	3514.	612.6	1.032
	3515.	612.7	1.032
	3516.	612.8	1.032
	3517.	613.0	1.032
	3518.	613.2	1.033
	3519.	613.4	1.033
	3520.	613.6	1.033
	3521.	613.7	1.033
	3522.	613.8	1.032
	3523.	613.9	1.032
	3524.	614.1	1.032
	3525.	614.3	1.032
	3526.	614.5	1.032
	3527.	614.6	1.032
	3528.	614.7	1.032
	3529.	615.0	1.032
	3530.	615.0	1.032
	3531.	615.2	1.032
	3532.	615.4	1.032
	3533.	615.6	1.032
	3534.	615.8	1.032
	3535.	615.9	1.032
	3536.	616.1	1.032
	3537.	616.3	1.032
	3538.	616.4	1.032
	3539.	616.6	1.032
	3540.	616.8	1.032
	3541.	617.0	1.032
	3542.	617.2	1.032
	3543.	617.4	1.031
	3544.	617.5	1.031
	3545.	617.7	1.031
	3546.	617.9	1.032
	3547.	618.0	1.032
	3548.	618.2	1.032
	3549.	618.4	1.032
	3550.	618.6	1.032
	3551.	618.7	1.032
	3552.	618.9	1.032
	3553.	619.1	1.032
	3554.	619.1	1.032
	3555.	619.3	1.032
	3556.	619.4	1.032
	3557.	619.6	1.032
	3558.	619.8	1.032
	3559.	619.9	1.031
	3560.	620.1	1.031
	3561.	620.2	1.031
	3562.	620.4	1.031
	3563.	620.6	1.031
	3564.	620.8	1.031
	3565.	621.0	1.031
	3566.	621.2	1.031
	3567.	621.3	1.032
	3568.	621.4	1.032
	3569.	621.5	1.031
	3570.	621.7	1.031
	3571.	621.9	1.031
	3572.	622.0	1.031
	3573.	622.2	1.031
	3574.	622.4	1.031
	3575.	622.6	1.031
	3576.	622.8	1.031
	3577.	623.0	1.031
	3578.	623.1	1.031
	3579.	623.4	1.031
	3580.	623.6	1.031
	3581.	623.7	1.031
	3582.	623.9	1.031
	3583.	624.0	1.030
	3584.	624.1	1.030
	3585.	624.4	1.030
	3586.	624.5	1.030
	3587.	624.7	1.030
	3588.	624.8	1.030
	3589.	625.0	1.030
	3590.	625.2	1.030
	3591.	625.3	1.030
	3592.	625.6	1.030
	3593.	625.8	1.030
	3594.	625.9	1.030
	3595.	626.0	1.030
	3596.	626.2	1.029
	3597.	626.3	1.029
	3598.	626.5	1.029
	3599.	626.7	1.029
	3600.	626.8	1.030
	3601.	627.0	1.029
	3602.	627.1	1.029
	3603.	627.2	1.030
	3604.	627.5	1.030
	3605.	627.6	1.030
	3606.	627.8	1.029
	3607.	628.0	1.030
	3608.	628.1	1.029
	3609.	628.3	1.029
	3610.	628.5	1.029
	3611.	628.7	1.029
	3612.	628.8	1.029
	3613.	629.0	1.029
	3614.	629.2	1.029
	3615.	629.3	1.029
	3616.	629.5	1.029
	3617.	629.6	1.029
	3618.	629.8	1.029
	3619.	630.0	1.029
	3620.	630.2	1.029
	3621.	630.4	1.029
	3622.	630.5	1.029
	3623.	630.6	1.029
	3624.	630.8	1.029
	3625.	631.0	1.029
	3626.	631.2	1.029
	3627.	631.4	1.029
	3628.	631.6	1.029
	3629.	631.7	1.029
	3630.	631.9	1.029
	3631.	632.1	1.029
	3632.	632.4	1.029
	3633.	632.6	1.028
	3634.	632.7	1.028
	3635.	632.9	1.028
	3636.	633.1	1.028
	3637.	633.3	1.028
	3638.	633.3	1.028
	3639.	633.5	1.028
	3640.	633.7	1.028
	3641.	633.8	1.028
	3642.	634.0	1.028
	3643.	634.3	1.028
	3644.	634.4	1.028
	3645.	634.6	1.028
	3646.	634.7	1.028
	3647.	634.9	1.028
	3648.	635.0	1.028
	3649.	635.1	1.028
	3650.	635.3	1.028
	3651.	635.4	1.028
	3652.	635.5	1.027
	3653.	635.7	1.027
	3654.	635.9	1.027
	3655.	636.1	1.027
	3656.	636.2	1.027
	3657.	636.4	1.027
	3658.	636.6	1.027
	3659.	636.8	1.027
	3660.	636.9	1.027
	3661.	637.0	1.026
	3662.	637.3	1.026
	3663.	637.4	1.026
	3664.	637.6	1.026
	3665.	637.8	1.027
	3666.	638.0	1.027
	3667.	638.2	1.027
	3668.	638.3	1.027
	3669.	638.5	1.027
	3670.	638.7	1.026
	3671.	638.8	1.026
	3672.	638.9	1.026
	3673.	639.1	1.026
	3674.	639.3	1.026
	3675.	639.6	1.026
	3676.	639.7	1.026
	3677.	639.9	1.026
	3678.	640.1	1.026
	3679.	640.2	1.026
	3680.	640.3	1.026
	3681.	640.5	1.026
	3682.	640.6	1.026
	3683.	640.8	1.026
	3684.	640.9	1.026
	3685.	641.2	1.026
	3686.	641.4	1.026
	3687.	641.6	1.026
	3688.	641.8	1.025
	3689.	641.9	1.025
	3690.	642.0	1.025
	3691.	642.2	1.025
	3692.	642.3	1.025
	3693.	642.4	1.025
	3694.	642.6	1.025
	3695.	642.8	1.025
	3696.	643.1	1.025
	3697.	643.3	1.025
	3698.	643.4	1.024
	3699.	643.5	1.024
	3700.	643.7	1.024
	3701.	643.9	1.024
	3702.	644.0	1.024
	3703.	644.2	1.024
	3704.	644.3	1.024
	3705.	644.4	1.025
	3706.	644.6	1.024
	3707.	644.8	1.025
	3708.	644.9	1.024
	3709.	645.1	1.024
	3710.	645.3	1.024
	3711.	645.5	1.024
	3712.	645.7	1.024
	3713.	645.9	1.024
	3714.	646.0	1.024
	3715.	646.2	1.024
	3716.	646.3	1.024
	3717.	646.5	1.024
	3718.	646.8	1.024
	3719.	647.0	1.023
	3720.	647.1	1.024
	3721.	647.3	1.024
	3722.	647.5	1.024
	3723.	647.6	1.024
	3724.	647.9	1.024
	3725.	647.9	1.023
	3726.	648.0	1.024
	3727.	648.2	1.024
	3728.	648.4	1.023
	3729.	648.6	1.023
	3730.	648.8	1.024
	3731.	649.0	1.024
	3732.	649.1	1.023
	3733.	649.3	1.024
	3734.	649.4	1.024
	3735.	649.6	1.024
	3736.	649.7	1.024
	3737.	649.8	1.023
	3738.	649.9	1.023
	3739.	650.1	1.023
	3740.	650.2	1.023
	3741.	650.5	1.023
	3742.	650.7	1.023
	3743.	650.8	1.023
	3744.	651.0	1.023
	3745.	651.2	1.023
	3746.	651.4	1.023
	3747.	651.5	1.023
	3748.	651.8	1.023
	3749.	651.9	1.023
	3750.	652.1	1.022
	3751.	652.4	1.022
	3752.	652.5	1.022
	3753.	652.6	1.022
	3754.	652.8	1.022
	3755.	653.0	1.022
	3756.	653.2	1.022
	3757.	653.5	1.022
	3758.	653.6	1.022
	3759.	653.8	1.022
	3760.	654.0	1.022
	3761.	654.1	1.022
	3762.	654.3	1.022
	3763.	654.4	1.022
	3764.	654.6	1.022
	3765.	654.8	1.022
	3766.	655.0	1.022
	3767.	655.1	1.022
	3768.	655.2	1.022
	3769.	655.5	1.022
	3770.	655.6	1.022
	3771.	655.8	1.022
	3772.	655.9	1.022
	3773.	656.0	1.022
	3774.	656.1	1.022
	3775.	656.4	1.021
	3776.	656.5	1.021
	3777.	656.6	1.021
	3778.	656.9	1.021
	3779.	657.0	1.021
	3780.	657.1	1.021
	3781.	657.2	1.021
	3782.	657.3	1.021
	3783.	657.5	1.021
	3784.	657.7	1.020
	3785.	657.9	1.021
	3786.	658.1	1.021
	3787.	658.2	1.020
	3788.	658.4	1.020
	3789.	658.6	1.020
	3790.	658.7	1.020
	3791.	658.9	1.021
	3792.	659.2	1.021
	3793.	659.3	1.020
	3794.	659.5	1.021
	3795.	659.7	1.021
	3796.	659.9	1.021
	3797.	660.1	1.021
	3798.	660.3	1.021
	3799.	660.4	1.021
	3800.	660.6	1.021
	3801.	660.8	1.021
	3802.	660.9	1.020
	3803.	661.1	1.020
	3804.	661.3	1.020
	3805.	661.4	1.020
	3806.	661.6	1.020
	3807.	661.8	1.020
	3808.	661.9	1.020
	3809.	662.1	1.020
	3810.	662.3	1.020
	3811.	662.5	1.020
	3812.	662.7	1.020
	3813.	662.9	1.020
	3814.	662.9	1.020
	3815.	663.2	1.020
	3816.	663.4	1.020
	3817.	663.5	1.020
	3818.	663.7	1.020
	3819.	663.9	1.020
	3820.	664.0	1.020
	3821.	664.1	1.020
	3822.	664.2	1.020
	3823.	664.4	1.020
	3824.	664.6	1.020
	3825.	664.7	1.020
	3826.	664.8	1.020
	3827.	665.0	1.020
	3828.	665.2	1.020
	3829.	665.4	1.020
	3830.	665.5	1.020
	3831.	665.6	1.020
	3832.	665.8	1.020
	3833.	665.9	1.020
	3834.	666.2	1.020
	3835.	666.2	1.020
	3836.	666.4	1.020
	3837.	666.6	1.020
	3838.	666.9	1.020
	3839.	667.0	1.020
	3840.	667.2	1.019
	3841.	667.5	1.019
	3842.	667.6	1.019
	3843.	667.7	1.019
	3844.	667.9	1.019
	3845.	668.1	1.019
	3846.	668.2	1.018
	3847.	668.4	1.019
	3848.	668.6	1.019
	3849.	668.7	1.019
	3850.	668.9	1.019
	3851.	669.0	1.019
	3852.	669.2	1.019
	3853.	669.4	1.019
	3854.	669.6	1.019
	3855.	669.8	1.019
	3856.	670.0	1.020
	3857.	670.1	1.020
	3858.	670.4	1.020
	3859.	670.6	1.020
	3860.	670.7	1.020
	3861.	670.9	1.020
	3862.	671.0	1.019
	3863.	671.2	1.019
	3864.	671.4	1.020
	3865.	671.5	1.020
	3866.	671.6	1.019
	3867.	671.8	1.020
	3868.	672.0	1.020
	3869.	672.1	1.020
	3870.	672.3	1.020
	3871.	672.5	1.020
	3872.	672.7	1.020
	3873.	672.8	1.020
	3874.	673.0	1.020
	3875.	673.1	1.020
	3876.	673.2	1.020
	3877.	673.3	1.020
	3878.	673.7	1.020
	3879.	673.8	1.020
	3880.	674.1	1.020
	3881.	674.3	1.020
	3882.	674.4	1.019
	3883.	674.5	1.020
	3884.	674.7	1.019
	3885.	674.9	1.019
	3886.	675.0	1.019
	3887.	675.2	1.019
	3888.	675.3	1.019
	3889.	675.5	1.019
	3890.	675.7	1.019
	3891.	675.9	1.019
	3892.	676.0	1.019
	3893.	676.2	1.019
	3894.	676.5	1.019
	3895.	676.6	1.019
	3896.	676.8	1.019
	3897.	677.0	1.019
	3898.	677.1	1.019
	3899.	677.2	1.019
	3900.	677.3	1.019
	3901.	677.5	1.019
	3902.	677.6	1.019
	3903.	677.8	1.019
	3904.	678.0	1.019
	3905.	678.2	1.019
	3906.	678.4	1.019
	3907.	678.5	1.019
	3908.	678.7	1.019
	3909.	678.9	1.019
	3910.	679.1	1.019
	3911.	679.2	1.019
	3912.	679.4	1.019
	3913.	679.5	1.019
	3914.	679.7	1.019
	3915.	679.8	1.019
	3916.	680.0	1.019
	3917.	680.2	1.019
	3918.	680.4	1.019
	3919.	680.5	1.019
	3920.	680.7	1.019
	3921.	680.8	1.019
	3922.	680.9	1.018
	3923.	681.1	1.018
	3924.	681.3	1.018
	3925.	681.5	1.018
	3926.	681.7	1.019
	3927.	681.9	1.019
	3928.	682.1	1.019
	3929.	682.3	1.019
	3930.	682.5	1.019
	3931.	682.7	1.019
	3932.	682.8	1.019
	3933.	683.0	1.019
	3934.	683.1	1.019
	3935.	683.3	1.019
	3936.	683.5	1.018
	3937.	683.7	1.018
	3938.	683.8	1.019
	3939.	684.0	1.019
	3940.	684.1	1.019
	3941.	684.3	1.019
	3942.	684.5	1.019
	3943.	684.6	1.019
	3944.	684.7	1.019
	3945.	684.9	1.019
	3946.	685.0	1.019
	3947.	685.1	1.019
	3948.	685.3	1.019
	3949.	685.5	1.019
	3950.	685.7	1.019
	3951.	685.8	1.019
	3952.	686.0	1.019
	3953.	686.2	1.019
	3954.	686.3	1.019
	3955.	686.5	1.019
	3956.	686.7	1.019
	3957.	686.9	1.019
	3958.	687.1	1.019
	3959.	687.2	1.019
	3960.	687.4	1.019
	3961.	687.7	1.019
	3962.	687.8	1.019
	3963.	688.0	1.019
	3964.	688.1	1.019
	3965.	688.3	1.019
	3966.	688.5	1.019
	3967.	688.7	1.019
	3968.	688.8	1.019
	3969.	689.1	1.019
	3970.	689.2	1.019
	3971.	689.3	1.019
	3972.	689.3	1.019
	3973.	689.6	1.019
	3974.	689.8	1.019
	3975.	689.9	1.019
	3976.	690.0	1.019
	3977.	690.3	1.019
	3978.	690.4	1.019
	3979.	690.6	1.019
	3980.	690.9	1.019
	3981.	691.0	1.019
	3982.	691.1	1.019
	3983.	691.3	1.019
	3984.	691.4	1.019
	3985.	691.6	1.019
	3986.	691.7	1.019
	3987.	691.8	1.019
	3988.	692.0	1.019
	3989.	692.2	1.019
	3990.	692.4	1.019
	3991.	692.6	1.019
	3992.	692.7	1.019
	3993.	692.9	1.019
	3994.	693.0	1.019
	3995.	693.2	1.019
	3996.	693.4	1.019
	3997.	693.6	1.019
	3998.	693.8	1.019
	3999.	693.9	1.019
	4000.	694.1	1.019
	4001.	694.4	1.019
	4002.	694.5	1.019
	4003.	694.7	1.019
	4004.	694.9	1.019
	4005.	695.0	1.019
	4006.	695.2	1.019
	4007.	695.4	1.019
	4008.	695.5	1.019
	4009.	695.6	1.019
	4010.	695.8	1.019
	4011.	696.0	1.018
	4012.	696.1	1.019
	4013.	696.3	1.019
	4014.	696.4	1.019
	4015.	696.6	1.019
	4016.	696.8	1.019
	4017.	697.0	1.019
	4018.	697.1	1.019
	4019.	697.3	1.019
	4020.	697.5	1.019
	4021.	697.6	1.019
	4022.	697.8	1.019
	4023.	697.9	1.019
	4024.	698.1	1.019
	4025.	698.2	1.019
	4026.	698.5	1.019
	4027.	698.7	1.019
	4028.	698.9	1.019
	4029.	699.0	1.019
	4030.	699.2	1.019
	4031.	699.4	1.019
	4032.	699.5	1.019
	4033.	699.7	1.019
	4034.	699.9	1.019
	4035.	700.0	1.019
	4036.	700.3	1.019
	4037.	700.4	1.019
	4038.	700.6	1.019
	4039.	700.7	1.019
	4040.	700.9	1.019
	4041.	701.1	1.019
	4042.	701.3	1.019
	4043.	701.4	1.019
	4044.	701.6	1.019
	4045.	701.6	1.019
	4046.	701.8	1.019
	4047.	702.0	1.019
	4048.	702.1	1.019
	4049.	702.2	1.019
	4050.	702.5	1.019
	4051.	702.7	1.019
	4052.	702.8	1.019
	4053.	703.0	1.019
	4054.	703.1	1.019
	4055.	703.3	1.019
	4056.	703.5	1.019
	4057.	703.7	1.019
	4058.	703.8	1.019
	4059.	704.0	1.019
	4060.	704.2	1.019
	4061.	704.3	1.019
	4062.	704.5	1.019
	4063.	704.6	1.019
	4064.	704.8	1.019
	4065.	705.0	1.019
	4066.	705.1	1.019
	4067.	705.3	1.019
	4068.	705.4	1.019
	4069.	705.6	1.019
	4070.	705.7	1.019
	4071.	705.9	1.019
	4072.	706.1	1.019
	4073.	706.2	1.019
	4074.	706.5	1.019
	4075.	706.6	1.019
	4076.	706.8	1.019
	4077.	706.9	1.019
	4078.	707.1	1.019
	4079.	707.2	1.019
	4080.	707.3	1.019
	4081.	707.5	1.019
	4082.	707.7	1.019
	4083.	707.9	1.019
	4084.	708.2	1.019
	4085.	708.3	1.019
	4086.	708.4	1.019
	4087.	708.6	1.019
	4088.	708.8	1.019
	4089.	709.0	1.019
	4090.	709.1	1.019
	4091.	709.3	1.019
	4092.	709.4	1.019
	4093.	709.6	1.019
	4094.	709.9	1.019
	4095.	710.1	1.019
	4096.	710.2	1.019
	4097.	710.4	1.019
	4098.	710.6	1.019
	4099.	710.8	1.019
	4100.	711.0	1.019
	4101.	711.2	1.019
	4102.	711.3	1.019
	4103.	711.6	1.019
	4104.	711.8	1.019
	4105.	711.9	1.019
	4106.	712.1	1.019
	4107.	712.2	1.019
	4108.	712.4	1.019
	4109.	712.6	1.019
	4110.	712.6	1.019
	4111.	712.7	1.019
	4112.	712.8	1.019
	4113.	713.1	1.019
	4114.	713.2	1.019
	4115.	713.3	1.019
	4116.	713.5	1.019
	4117.	713.7	1.019
	4118.	713.7	1.019
	4119.	714.0	1.019
	4120.	714.1	1.019
	4121.	714.3	1.019
	4122.	714.4	1.019
	4123.	714.6	1.019
	4124.	714.8	1.019
	4125.	714.9	1.019
	4126.	715.1	1.019
	4127.	715.2	1.019
	4128.	715.4	1.019
	4129.	715.6	1.019
	4130.	715.8	1.019
	4131.	716.0	1.019
	4132.	716.2	1.019
	4133.	716.3	1.019
	4134.	716.5	1.019
	4135.	716.8	1.019
	4136.	717.0	1.019
	4137.	717.1	1.019
	4138.	717.3	1.019
	4139.	717.5	1.019
	4140.	717.6	1.019
	4141.	717.8	1.019
	4142.	718.0	1.019
	4143.	718.2	1.019
	4144.	718.5	1.019
	4145.	718.6	1.019
	4146.	718.7	1.019
	4147.	718.8	1.019
	4148.	718.9	1.019
	4149.	719.2	1.019
	4150.	719.3	1.019
	4151.	719.5	1.019
	4152.	719.6	1.019
	4153.	719.7	1.019
	4154.	719.9	1.019
	4155.	720.1	1.019
	4156.	720.3	1.019
	4157.	720.5	1.019
	4158.	720.6	1.019
	4159.	720.8	1.019
	4160.	720.9	1.019
	4161.	721.1	1.019
	4162.	721.1	1.019
	4163.	721.4	1.019
	4164.	721.5	1.019
	4165.	721.7	1.019
	4166.	722.0	1.019
	4167.	722.1	1.019
	4168.	722.3	1.019
	4169.	722.5	1.019
	4170.	722.6	1.019
	4171.	722.7	1.019
	4172.	722.8	1.019
	4173.	723.1	1.019
	4174.	723.2	1.019
	4175.	723.4	1.019
	4176.	723.5	1.019
	4177.	723.7	1.019
	4178.	723.7	1.019
	4179.	723.9	1.019
	4180.	724.1	1.019
	4181.	724.4	1.019
	4182.	724.5	1.019
	4183.	724.7	1.019
	4184.	724.7	1.019
	4185.	725.0	1.019
	4186.	725.1	1.019
	4187.	725.3	1.019
	4188.	725.6	1.019
	4189.	725.8	1.019
	4190.	725.9	1.019
	4191.	726.0	1.019
	4192.	726.2	1.019
	4193.	726.4	1.019
	4194.	726.6	1.019
	4195.	726.8	1.019
	4196.	727.0	1.019
	4197.	727.1	1.019
	4198.	727.3	1.019
	4199.	727.4	1.019
	4200.	727.6	1.019
	4201.	727.8	1.019
	4202.	728.1	1.019
	4203.	728.3	1.019
	4204.	728.4	1.019
	4205.	728.5	1.019
	4206.	728.6	1.018
	4207.	728.8	1.018
	4208.	728.9	1.019
	4209.	729.1	1.019
	4210.	729.2	1.019
	4211.	729.4	1.019
	4212.	729.6	1.019
	4213.	729.7	1.019
	4214.	729.8	1.019
	4215.	730.0	1.019
	4216.	730.1	1.019
	4217.	730.3	1.019
	4218.	730.5	1.019
	4219.	730.6	1.018
	4220.	730.8	1.018
	4221.	731.0	1.018
	4222.	731.1	1.018
	4223.	731.4	1.019
	4224.	731.6	1.018
	4225.	731.8	1.018
	4226.	732.0	1.018
	4227.	732.1	1.018
	4228.	732.3	1.018
	4229.	732.5	1.018
	4230.	732.6	1.018
	4231.	732.8	1.018
	4232.	733.0	1.018
	4233.	733.1	1.018
	4234.	733.3	1.018
	4235.	733.4	1.018
	4236.	733.6	1.018
	4237.	733.8	1.018
	4238.	734.0	1.018
	4239.	734.1	1.018
	4240.	734.3	1.018
	4241.	734.6	1.018
	4242.	734.6	1.018
	4243.	734.7	1.018
	4244.	734.9	1.018
	4245.	735.1	1.018
	4246.	735.2	1.018
	4247.	735.4	1.018
	4248.	735.5	1.018
	4249.	735.7	1.018
	4250.	735.8	1.018
	4251.	736.0	1.018
	4252.	736.2	1.018
	4253.	736.4	1.018
	4254.	736.7	1.018
	4255.	736.8	1.018
	4256.	737.0	1.018
	4257.	737.1	1.018
	4258.	737.3	1.018
	4259.	737.4	1.018
	4260.	737.6	1.018
	4261.	737.8	1.017
	4262.	738.0	1.018
	4263.	738.2	1.018
	4264.	738.2	1.018
	4265.	738.4	1.018
	4266.	738.6	1.018
	4267.	738.7	1.018
	4268.	738.9	1.017
	4269.	739.2	1.017
	4270.	739.2	1.018
	4271.	739.4	1.018
	4272.	739.6	1.017
	4273.	739.7	1.017
	4274.	740.0	1.017
	4275.	740.2	1.017
	4276.	740.3	1.017
	4277.	740.5	1.017
	4278.	740.6	1.017
	4279.	740.8	1.017
	4280.	741.1	1.017
	4281.	741.2	1.017
	4282.	741.3	1.017
	4283.	741.4	1.017
	4284.	741.6	1.017
	4285.	741.7	1.017
	4286.	741.9	1.017
	4287.	742.0	1.017
	4288.	742.1	1.017
	4289.	742.3	1.017
	4290.	742.4	1.017
	4291.	742.7	1.017
	4292.	742.8	1.017
	4293.	743.1	1.017
	4294.	743.1	1.017
	4295.	743.4	1.017
	4296.	743.6	1.016
	4297.	743.8	1.017
	4298.	744.0	1.016
	4299.	744.3	1.017
	4300.	744.4	1.017
	4301.	744.6	1.017
	4302.	744.7	1.016
	4303.	745.0	1.016
	4304.	745.1	1.016
	4305.	745.2	1.016
	4306.	745.3	1.016
	4307.	745.5	1.016
	4308.	745.6	1.016
	4309.	745.8	1.016
	4310.	745.9	1.016
	4311.	746.1	1.016
	4312.	746.2	1.016
	4313.	746.4	1.016
	4314.	746.6	1.016
	4315.	746.8	1.016
	4316.	747.0	1.016
	4317.	747.1	1.016
	4318.	747.2	1.016
	4319.	747.4	1.016
	4320.	747.5	1.016
	4321.	747.7	1.015
	4322.	747.9	1.015
	4323.	748.1	1.015
	4324.	748.2	1.015
	4325.	748.3	1.015
	4326.	748.5	1.015
	4327.	748.7	1.015
	4328.	748.9	1.015
	4329.	749.1	1.015
	4330.	749.3	1.015
	4331.	749.4	1.015
	4332.	749.7	1.015
	4333.	749.8	1.014
	4334.	750.1	1.015
	4335.	750.2	1.015
	4336.	750.4	1.014
	4337.	750.5	1.014
	4338.	750.7	1.014
	4339.	750.8	1.014
	4340.	751.0	1.015
	4341.	751.2	1.014
	4342.	751.3	1.014
	4343.	751.5	1.014
	4344.	751.6	1.015
	4345.	751.8	1.015
	4346.	752.0	1.014
	4347.	752.2	1.014
	4348.	752.3	1.014
	4349.	752.5	1.014
	4350.	752.7	1.014
	4351.	752.8	1.014
	4352.	752.9	1.014
	4353.	753.1	1.014
	4354.	753.3	1.014
	4355.	753.4	1.014
	4356.	753.5	1.014
	4357.	753.7	1.014
	4358.	753.9	1.014
	4359.	754.1	1.014
	4360.	754.3	1.014
	4361.	754.5	1.014
	4362.	754.6	1.014
	4363.	754.8	1.014
	4364.	755.0	1.014
	4365.	755.2	1.014
	4366.	755.3	1.014
	4367.	755.5	1.014
	4368.	755.7	1.013
	4369.	755.8	1.014
	4370.	756.0	1.013
	4371.	756.0	1.013
	4372.	756.2	1.013
	4373.	756.4	1.013
	4374.	756.6	1.013
	4375.	756.8	1.013
	4376.	757.0	1.013
	4377.	757.1	1.013
	4378.	757.3	1.013
	4379.	757.5	1.013
	4380.	757.6	1.013
	4381.	757.7	1.013
	4382.	757.9	1.013
	4383.	758.1	1.013
	4384.	758.3	1.013
	4385.	758.5	1.013
	4386.	758.7	1.012
	4387.	758.8	1.012
	4388.	759.0	1.013
	4389.	759.2	1.012
	4390.	759.4	1.012
	4391.	759.5	1.012
	4392.	759.7	1.012
	4393.	759.9	1.012
	4394.	760.1	1.012
	4395.	760.2	1.012
	4396.	760.3	1.012
	4397.	760.5	1.012
	4398.	760.7	1.012
	4399.	760.8	1.012
	4400.	760.9	1.012
	4401.	761.1	1.012
	4402.	761.2	1.012
	4403.	761.4	1.012
	4404.	761.5	1.012
	4405.	761.7	1.012
	4406.	761.9	1.012
	4407.	762.1	1.011
	4408.	762.2	1.012
	4409.	762.5	1.011
	4410.	762.7	1.011
	4411.	762.7	1.012
	4412.	762.9	1.011
	4413.	763.0	1.011
	4414.	763.3	1.011
	4415.	763.4	1.011
	4416.	763.5	1.011
	4417.	763.6	1.011
	4418.	763.9	1.011
	4419.	764.0	1.011
	4420.	764.1	1.010
	4421.	764.3	1.010
	4422.	764.5	1.010
	4423.	764.7	1.010
	4424.	764.8	1.010
	4425.	765.1	1.010
	4426.	765.2	1.010
	4427.	765.3	1.010
	4428.	765.6	1.010
	4429.	765.7	1.010
	4430.	765.9	1.010
	4431.	766.0	1.010
	4432.	766.3	1.010
	4433.	766.5	1.010
	4434.	766.7	1.010
	4435.	766.8	1.010
	4436.	767.0	1.010
	4437.	767.2	1.009
	4438.	767.4	1.009
	4439.	767.6	1.009
	4440.	767.8	1.009
	4441.	767.9	1.009
	4442.	768.0	1.009
	4443.	768.2	1.009
	4444.	768.3	1.009
	4445.	768.5	1.009
	4446.	768.7	1.009
	4447.	768.8	1.009
	4448.	769.0	1.009
	4449.	769.1	1.009
	4450.	769.3	1.009
	4451.	769.5	1.009
	4452.	769.7	1.009
	4453.	769.8	1.008
	4454.	769.9	1.008
	4455.	770.0	1.008
	4456.	770.3	1.008
	4457.	770.4	1.008
	4458.	770.6	1.008
	4459.	770.6	1.008
	4460.	770.8	1.008
	4461.	770.9	1.008
	4462.	771.1	1.008
	4463.	771.3	1.008
	4464.	771.6	1.008
	4465.	771.7	1.008
	4466.	771.8	1.008
	4467.	772.0	1.008
	4468.	772.2	1.008
	4469.	772.4	1.008
	4470.	772.5	1.008
	4471.	772.7	1.007
	4472.	772.9	1.007
	4473.	773.1	1.007
	4474.	773.2	1.007
	4475.	773.4	1.007
	4476.	773.6	1.007
	4477.	773.8	1.007
	4478.	774.0	1.007
	4479.	774.2	1.007
	4480.	774.4	1.007
	4481.	774.6	1.007
	4482.	774.8	1.007
	4483.	775.0	1.007
	4484.	775.2	1.007
	4485.	775.2	1.007
	4486.	775.3	1.007
	4487.	775.5	1.007
	4488.	775.6	1.006
	4489.	775.9	1.006
	4490.	776.0	1.006
	4491.	776.2	1.006
	4492.	776.3	1.006
	4493.	776.5	1.006
	4494.	776.6	1.006
	4495.	776.9	1.006
	4496.	777.0	1.006
	4497.	777.2	1.006
	4498.	777.3	1.006
	4499.	777.4	1.005
	4500.	777.6	1.005
	4501.	777.7	1.005
	4502.	777.9	1.005
	4503.	778.2	1.005
	4504.	778.3	1.005
	4505.	778.4	1.005
	4506.	778.6	1.005
	4507.	778.7	1.005
	4508.	778.9	1.005
	4509.	779.0	1.005
	4510.	779.2	1.005
	4511.	779.3	1.005
	4512.	779.5	1.005
	4513.	779.7	1.004
	4514.	779.9	1.004
	4515.	780.1	1.005
	4516.	780.3	1.005
	4517.	780.4	1.004
	4518.	780.7	1.004
	4519.	781.0	1.004
	4520.	781.1	1.004
	4521.	781.3	1.004
	4522.	781.5	1.004
	4523.	781.6	1.004
	4524.	781.8	1.004
	4525.	781.9	1.004
	4526.	782.1	1.004
	4527.	782.2	1.003
	4528.	782.3	1.003
	4529.	782.5	1.003
	4530.	782.7	1.003
	4531.	783.0	1.003
	4532.	783.1	1.003
	4533.	783.3	1.003
	4534.	783.5	1.003
	4535.	783.6	1.003
	4536.	783.7	1.003
	4537.	783.8	1.003
	4538.	783.9	1.003
	4539.	784.0	1.003
	4540.	784.2	1.003
	4541.	784.4	1.003
	4542.	784.6	1.002
	4543.	784.8	1.002
	4544.	785.0	1.002
	4545.	785.2	1.002
	4546.	785.3	1.002
	4547.	785.5	1.002
	4548.	785.6	1.002
	4549.	785.8	1.002
	4550.	785.9	1.002
	4551.	786.0	1.002
	4552.	786.2	1.002
	4553.	786.3	1.002
	4554.	786.5	1.002
	4555.	786.7	1.001
	4556.	786.9	1.001
	4557.	787.0	1.001
	4558.	787.2	1.001
	4559.	787.4	1.001
	4560.	787.6	1.001
	4561.	787.7	1.001
	4562.	787.9	1.000
	4563.	788.2	1.000
	4564.	788.3	0.9999
	4565.	788.5	0.9999
	4566.	788.7	1.000
	4567.	788.9	1.000
	4568.	789.0	1.000
	4569.	789.2	0.9998
	4570.	789.3	0.9998
	4571.	789.5	0.9998
	4572.	789.7	0.9997
	4573.	789.9	0.9998
	4574.	790.0	0.9997
	4575.	790.2	0.9995
	4576.	790.2	0.9997
	4577.	790.4	0.9996
	4578.	790.6	0.9997
	4579.	790.8	0.9997
	4580.	790.9	0.9997
	4581.	791.1	0.9996
	4582.	791.3	0.9996
	4583.	791.5	0.9997
	4584.	791.5	0.9997
	4585.	791.7	0.9996
	4586.	791.9	0.9996
	4587.	792.2	0.9994
	4588.	792.3	0.9995
	4589.	792.5	0.9993
	4590.	792.7	0.9991
	4591.	792.9	0.9991
	4592.	793.0	0.9991
	4593.	793.0	0.9992
	4594.	793.2	0.9991
	4595.	793.3	0.9992
	4596.	793.5	0.9990
	4597.	793.7	0.9990
	4598.	793.9	0.9987
	4599.	794.2	0.9990
	4600.	794.3	0.9988
	4601.	794.5	0.9986
	4602.	794.6	0.9987
	4603.	794.8	0.9983
	4604.	794.9	0.9984
	4605.	795.1	0.9983
	4606.	795.3	0.9981
	4607.	795.5	0.9979
	4608.	795.7	0.9980
	4609.	795.9	0.9979
	4610.	796.0	0.9979
	4611.	796.2	0.9978
	4612.	796.3	0.9978
	4613.	796.5	0.9975
	4614.	796.6	0.9976
	4615.	796.8	0.9975
	4616.	796.9	0.9974
	4617.	797.0	0.9973
	4618.	797.3	0.9971
	4619.	797.4	0.9972
	4620.	797.6	0.9970
	4621.	797.8	0.9971
	4622.	797.9	0.9968
	4623.	798.1	0.9970
	4624.	798.4	0.9968
	4625.	798.4	0.9969
	4626.	798.6	0.9969
	4627.	798.8	0.9967
	4628.	799.0	0.9966
	4629.	799.2	0.9966
	4630.	799.3	0.9966
	4631.	799.4	0.9966
	4632.	799.7	0.9965
	4633.	799.9	0.9966
	4634.	800.1	0.9965
	4635.	800.2	0.9965
	4636.	800.4	0.9963
	4637.	800.5	0.9966
	4638.	800.6	0.9965
	4639.	800.8	0.9965
	4640.	801.0	0.9967
	4641.	801.2	0.9969
	4642.	801.3	0.9966
	4643.	801.4	0.9968
	4644.	801.5	0.9970
	4645.	801.7	0.9970
	4646.	801.9	0.9969
	4647.	802.1	0.9969
	4648.	802.2	0.9970
	4649.	802.4	0.9972
	4650.	802.6	0.9972
	4651.	802.7	0.9970
	4652.	802.9	0.9971
	4653.	803.1	0.9974
	4654.	803.3	0.9972
	4655.	803.5	0.9972
	4656.	803.6	0.9971
	4657.	803.8	0.9969
	4658.	803.9	0.9970
	4659.	804.2	0.9966
	4660.	804.3	0.9964
	4661.	804.6	0.9964
	4662.	804.8	0.9962
	4663.	804.8	0.9961
	4664.	805.0	0.9962
	4665.	805.1	0.9963
	4666.	805.3	0.9961
	4667.	805.5	0.9964
	4668.	805.7	0.9965
	4669.	805.8	0.9965
	4670.	805.9	0.9966
	4671.	806.1	0.9969
	4672.	806.2	0.9965
	4673.	806.3	0.9963
	4674.	806.5	0.9965
	4675.	806.6	0.9964
	4676.	806.8	0.9968
	4677.	807.0	0.9969
	4678.	807.2	0.9967
	4679.	807.4	0.9966
	4680.	807.6	0.9968
	4681.	807.8	0.9971
	4682.	807.9	0.9972
	4683.	808.1	0.9971
	4684.	808.3	0.9971
	4685.	808.4	0.9972
	4686.	808.5	0.9972
	4687.	808.7	0.9974
	4688.	808.9	0.9972
	4689.	809.0	0.9971
	4690.	809.2	0.9972
	4691.	809.5	0.9978
	4692.	809.6	0.9976
	4693.	809.8	0.9976
	4694.	810.0	0.9973
	4695.	810.2	0.9974
	4696.	810.3	0.9975
	4697.	810.5	0.9976
	4698.	810.7	0.9976
	4699.	810.8	0.9976
	4700.	810.9	0.9976
	4701.	811.0	0.9977
	4702.	811.2	0.9978
	4703.	811.4	0.9978
	4704.	811.7	0.9978
	4705.	811.8	0.9980
	4706.	812.1	0.9982
	4707.	812.3	0.9984
	4708.	812.4	0.9982
	4709.	812.5	0.9983
	4710.	812.7	0.9983
	4711.	812.9	0.9984
	4712.	813.0	0.9987
	4713.	813.2	0.9986
	4714.	813.3	0.9989
	4715.	813.5	0.9989
	4716.	813.6	0.9991
	4717.	813.8	0.9993
	4718.	813.9	0.9994
	4719.	814.1	0.9996
	4720.	814.3	0.9994
	4721.	814.4	0.9995
	4722.	814.7	0.9996
	4723.	814.8	0.9996
	4724.	814.9	0.9998
	4725.	815.2	0.9998
	4726.	815.3	0.9998
	4727.	815.4	0.9999
	4728.	815.5	0.9998
	4729.	815.6	1.000
	4730.	815.9	1.000
	4731.	816.0	1.000
	4732.	816.2	1.000
	4733.	816.4	1.000
	4734.	816.5	1.000
	4735.	816.8	1.000
	4736.	816.9	1.000
	4737.	817.2	1.001
	4738.	817.3	1.001
	4739.	817.5	1.001
	4740.	817.6	1.001
	4741.	817.7	1.001
	4742.	818.0	1.001
	4743.	818.2	1.001
	4744.	818.3	1.001
	4745.	818.6	1.001
	4746.	818.8	1.001
	4747.	819.0	1.001
	4748.	819.1	1.001
	4749.	819.2	1.001
	4750.	819.4	1.001
	4751.	819.6	1.001
	4752.	819.8	1.001
	4753.	819.9	1.001
	4754.	820.1	1.002
	4755.	820.2	1.002
	4756.	820.4	1.002
	4757.	820.5	1.002
	4758.	820.6	1.002
	4759.	820.7	1.002
	4760.	820.9	1.002
	4761.	821.1	1.002
	4762.	821.2	1.002
	4763.	821.4	1.003
	4764.	821.5	1.003
	4765.	821.7	1.003
	4766.	821.9	1.003
	4767.	822.2	1.003
	4768.	822.4	1.003
	4769.	822.5	1.003
	4770.	822.8	1.003
	4771.	822.9	1.003
	4772.	823.1	1.003
	4773.	823.3	1.003
	4774.	823.3	1.003
	4775.	823.5	1.003
	4776.	823.6	1.003
	4777.	823.7	1.003
	4778.	823.9	1.004
	4779.	824.1	1.003
	4780.	824.3	1.004
	4781.	824.5	1.004
	4782.	824.6	1.004
	4783.	824.9	1.004
	4784.	825.1	1.005
	4785.	825.3	1.005
	4786.	825.4	1.005
	4787.	825.5	1.005
	4788.	825.7	1.004
	4789.	825.8	1.005
	4790.	826.0	1.005
	4791.	826.1	1.005
	4792.	826.3	1.005
	4793.	826.5	1.005
	4794.	826.7	1.005
	4795.	826.8	1.005
	4796.	827.0	1.005
	4797.	827.2	1.006
	4798.	827.4	1.005
	4799.	827.5	1.006
	4800.	827.6	1.006
	4801.	827.8	1.006
	4802.	827.9	1.006
	4803.	828.2	1.006
	4804.	828.3	1.006
	4805.	828.6	1.006
	4806.	828.7	1.006
	4807.	828.9	1.006
	4808.	829.1	1.006
	4809.	829.3	1.006
	4810.	829.4	1.006
	4811.	829.6	1.006
	4812.	829.7	1.007
	4813.	830.0	1.007
	4814.	830.0	1.007
	4815.	830.1	1.007
	4816.	830.2	1.007
	4817.	830.3	1.007
	4818.	830.5	1.007
	4819.	830.7	1.007
	4820.	830.8	1.007
	4821.	831.0	1.008
	4822.	831.2	1.007
	4823.	831.5	1.007
	4824.	831.7	1.008
	4825.	831.9	1.008
	4826.	832.1	1.008
	4827.	832.3	1.009
	4828.	832.4	1.009
	4829.	832.5	1.009
	4830.	832.6	1.009
	4831.	832.9	1.009
	4832.	833.0	1.009
	4833.	833.2	1.009
	4834.	833.4	1.009
	4835.	833.6	1.009
	4836.	833.8	1.009
	4837.	833.9	1.010
	4838.	834.2	1.010
	4839.	834.4	1.010
	4840.	834.5	1.010
	4841.	834.6	1.010
	4842.	834.8	1.010
	4843.	834.9	1.010
	4844.	835.1	1.010
	4845.	835.2	1.010
	4846.	835.3	1.011
	4847.	835.5	1.011
	4848.	835.6	1.011
	4849.	835.8	1.011
	4850.	835.9	1.011
	4851.	836.0	1.011
	4852.	836.2	1.011
	4853.	836.5	1.011
	4854.	836.7	1.012
	4855.	836.8	1.012
	4856.	837.0	1.012
	4857.	837.1	1.012
	4858.	837.3	1.012
	4859.	837.5	1.012
	4860.	837.7	1.012
	4861.	837.8	1.012
	4862.	838.0	1.012
	4863.	838.2	1.012
	4864.	838.3	1.012
	4865.	838.4	1.013
	4866.	838.6	1.013
	4867.	838.8	1.012
	4868.	838.9	1.012
	4869.	839.1	1.012
	4870.	839.3	1.012
	4871.	839.4	1.013
	4872.	839.7	1.013
	4873.	839.8	1.013
	4874.	840.0	1.014
	4875.	840.2	1.013
	4876.	840.3	1.014
	4877.	840.6	1.014
	4878.	840.7	1.014
	4879.	840.8	1.014
	4880.	841.0	1.014
	4881.	841.2	1.014
	4882.	841.5	1.014
	4883.	841.7	1.014
	4884.	841.8	1.014
	4885.	842.0	1.015
	4886.	842.1	1.015
	4887.	842.3	1.015
	4888.	842.5	1.015
	4889.	842.7	1.015
	4890.	842.8	1.015
	4891.	842.9	1.015
	4892.	842.9	1.015
	4893.	843.1	1.015
	4894.	843.2	1.015
	4895.	843.4	1.015
	4896.	843.5	1.015
	4897.	843.7	1.015
	4898.	843.9	1.015
	4899.	844.0	1.015
	4900.	844.2	1.015
	4901.	844.4	1.016
	4902.	844.5	1.016
	4903.	844.7	1.016
	4904.	844.9	1.016
	4905.	845.1	1.016
	4906.	845.4	1.016
	4907.	845.6	1.016
	4908.	845.8	1.016
	4909.	845.9	1.016
	4910.	846.1	1.016
	4911.	846.2	1.016
	4912.	846.4	1.017
	4913.	846.6	1.017
	4914.	846.7	1.017
	4915.	846.9	1.017
	4916.	847.1	1.017
	4917.	847.3	1.017
	4918.	847.5	1.017
	4919.	847.6	1.017
	4920.	847.7	1.017
	4921.	848.0	1.017
	4922.	848.2	1.017
	4923.	848.3	1.018
	4924.	848.3	1.018
	4925.	848.5	1.018
	4926.	848.7	1.018
	4927.	848.8	1.018
	4928.	848.9	1.018
	4929.	849.1	1.018
	4930.	849.3	1.018
	4931.	849.4	1.018
	4932.	849.7	1.018
	4933.	849.8	1.018
	4934.	850.0	1.018
	4935.	850.1	1.018
	4936.	850.3	1.019
	4937.	850.5	1.019
	4938.	850.6	1.019
	4939.	850.8	1.019
	4940.	851.0	1.019
	4941.	851.1	1.019
	4942.	851.4	1.019
	4943.	851.5	1.019
	4944.	851.8	1.019
	4945.	851.9	1.019
	4946.	852.0	1.020
	4947.	852.1	1.020
	4948.	852.3	1.020
	4949.	852.5	1.020
	4950.	852.7	1.020
	4951.	853.0	1.020
	4952.	853.1	1.020
	4953.	853.3	1.020
	4954.	853.4	1.020
	4955.	853.5	1.021
	4956.	853.6	1.021
	4957.	853.8	1.021
	4958.	854.0	1.021
	4959.	854.1	1.021
	4960.	854.3	1.021
	4961.	854.5	1.021
	4962.	854.7	1.021
	4963.	854.8	1.021
	4964.	855.0	1.022
	4965.	855.2	1.022
	4966.	855.3	1.022
	4967.	855.4	1.022
	4968.	855.6	1.022
	4969.	855.7	1.022
	4970.	855.9	1.022
	4971.	856.0	1.022
	4972.	856.2	1.022
	4973.	856.4	1.022
	4974.	856.6	1.023
	4975.	856.8	1.023
	4976.	857.0	1.023
	4977.	857.2	1.023
	4978.	857.3	1.023
	4979.	857.5	1.023
	4980.	857.7	1.023
	4981.	857.9	1.023
	4982.	858.1	1.023
	4983.	858.3	1.023
	4984.	858.5	1.023
	4985.	858.7	1.024
	4986.	858.8	1.024
	4987.	859.0	1.024
	4988.	859.2	1.024
	4989.	859.3	1.024
	4990.	859.4	1.024
	4991.	859.6	1.024
	4992.	859.7	1.024
	4993.	859.9	1.024
	4994.	860.0	1.024
	4995.	860.2	1.024
	4996.	860.4	1.025
	4997.	860.6	1.025
	4998.	860.7	1.025
	4999.	860.9	1.025
	5000.	861.0	1.025
	5001.	861.1	1.025
	5002.	861.3	1.025
	5003.	861.4	1.025
	5004.	861.5	1.025
	5005.	861.7	1.025
	5006.	861.9	1.025
	5007.	862.0	1.025
	5008.	862.2	1.025
	5009.	862.4	1.025
	5010.	862.7	1.025
	5011.	862.8	1.025
	5012.	863.0	1.026
	5013.	863.1	1.025
	5014.	863.3	1.025
	5015.	863.4	1.026
	5016.	863.6	1.026
	5017.	863.8	1.026
	5018.	863.9	1.027
	5019.	864.0	1.027
	5020.	864.2	1.026
	5021.	864.5	1.026
	5022.	864.6	1.026
	5023.	864.9	1.027
	5024.	865.0	1.026
	5025.	865.1	1.027
	5026.	865.3	1.027
	5027.	865.4	1.027
	5028.	865.7	1.027
	5029.	865.8	1.028
	5030.	866.0	1.028
	5031.	866.2	1.028
	5032.	866.3	1.028
	5033.	866.5	1.029
	5034.	866.7	1.029
	5035.	866.9	1.029
	5036.	867.1	1.029
	5037.	867.2	1.029
	5038.	867.3	1.029
	5039.	867.5	1.029
	5040.	867.6	1.029
	5041.	867.8	1.029
	5042.	868.0	1.029
	5043.	868.2	1.029
	5044.	868.3	1.029
	5045.	868.5	1.029
	5046.	868.7	1.030
	5047.	868.9	1.030
	5048.	869.0	1.030
	5049.	869.3	1.030
	5050.	869.4	1.030
	5051.	869.5	1.030
	5052.	869.6	1.030
	5053.	869.8	1.030
	5054.	870.0	1.030
	5055.	870.2	1.030
	5056.	870.3	1.030
	5057.	870.5	1.031
	5058.	870.6	1.031
	5059.	870.9	1.031
	5060.	871.0	1.030
	5061.	871.3	1.031
	5062.	871.4	1.031
	5063.	871.7	1.031
	5064.	871.7	1.031
	5065.	871.9	1.031
	5066.	872.1	1.031
	5067.	872.3	1.031
	5068.	872.4	1.031
	5069.	872.5	1.031
	5070.	872.8	1.031
	5071.	873.0	1.031
	5072.	873.1	1.031
	5073.	873.3	1.031
	5074.	873.5	1.031
	5075.	873.5	1.032
	5076.	873.6	1.031
	5077.	873.8	1.032
	5078.	873.9	1.032
	5079.	874.1	1.032
	5080.	874.4	1.032
	5081.	874.5	1.032
	5082.	874.6	1.032
	5083.	874.7	1.032
	5084.	874.9	1.033
	5085.	875.1	1.033
	5086.	875.3	1.032
	5087.	875.5	1.032
	5088.	875.7	1.032
	5089.	875.9	1.032
	5090.	876.1	1.033
	5091.	876.3	1.033
	5092.	876.5	1.033
	5093.	876.7	1.033
	5094.	876.9	1.033
	5095.	877.0	1.033
	5096.	877.0	1.033
	5097.	877.2	1.033
	5098.	877.4	1.034
	5099.	877.5	1.034
	5100.	877.8	1.034
	5101.	878.0	1.034
	5102.	878.1	1.034
	5103.	878.3	1.034
	5104.	878.5	1.034
	5105.	878.6	1.034
	5106.	878.7	1.035
	5107.	878.9	1.035
	5108.	879.1	1.035
	5109.	879.2	1.035
	5110.	879.5	1.035
	5111.	879.6	1.035
	5112.	879.7	1.035
	5113.	879.9	1.035
	5114.	879.9	1.036
	5115.	880.1	1.036
	5116.	880.2	1.036
	5117.	880.4	1.036
	5118.	880.6	1.036
	5119.	880.8	1.036
	5120.	881.0	1.036
	5121.	881.1	1.036
	5122.	881.4	1.036
	5123.	881.6	1.036
	5124.	881.7	1.036
	5125.	881.8	1.036
	5126.	882.0	1.037
	5127.	882.2	1.037
	5128.	882.3	1.036
	5129.	882.5	1.036
	5130.	882.6	1.037
	5131.	882.8	1.037
	5132.	883.0	1.037
	5133.	883.2	1.037
	5134.	883.5	1.036
	5135.	883.6	1.037
	5136.	883.8	1.037
	5137.	883.9	1.037
	5138.	884.1	1.037
	5139.	884.3	1.037
	5140.	884.5	1.037
	5141.	884.6	1.038
	5142.	884.7	1.037
	5143.	884.9	1.037
	5144.	885.1	1.037
	5145.	885.3	1.037
	5146.	885.4	1.038
	5147.	885.6	1.038
	5148.	885.7	1.038
	5149.	885.8	1.038
	5150.	886.0	1.038
	5151.	886.1	1.038
	5152.	886.3	1.038
	5153.	886.4	1.038
	5154.	886.6	1.038
	5155.	886.9	1.038
	5156.	887.0	1.038
	5157.	887.1	1.038
	5158.	887.3	1.038
	5159.	887.5	1.039
	5160.	887.7	1.039
	5161.	887.8	1.039
	5162.	888.0	1.039
	5163.	888.1	1.039
	5164.	888.4	1.039
	5165.	888.6	1.039
	5166.	888.8	1.039
	5167.	889.0	1.039
	5168.	889.1	1.040
	5169.	889.3	1.040
	5170.	889.4	1.040
	5171.	889.6	1.040
	5172.	889.7	1.040
	5173.	889.8	1.040
	5174.	889.9	1.040
	5175.	890.2	1.040
	5176.	890.3	1.041
	5177.	890.5	1.041
	5178.	890.8	1.041
	5179.	890.9	1.041
	5180.	891.0	1.041
	5181.	891.2	1.041
	5182.	891.4	1.041
	5183.	891.5	1.041
	5184.	891.7	1.042
	5185.	891.8	1.042
	5186.	892.0	1.042
	5187.	892.2	1.042
	5188.	892.4	1.042
	5189.	892.6	1.042
	5190.	892.7	1.042
	5191.	892.9	1.042
	5192.	893.0	1.042
	5193.	893.2	1.042
	5194.	893.4	1.042
	5195.	893.6	1.042
	5196.	893.7	1.042
	5197.	893.9	1.042
	5198.	894.1	1.043
	5199.	894.2	1.042
	5200.	894.4	1.042
	5201.	894.5	1.043
	5202.	894.7	1.043
	5203.	894.9	1.042
	5204.	895.0	1.042
	5205.	895.2	1.042
	5206.	895.4	1.042
	5207.	895.5	1.042
	5208.	895.7	1.042
	5209.	895.9	1.043
	5210.	896.1	1.043
	5211.	896.2	1.043
	5212.	896.4	1.043
	5213.	896.5	1.043
	5214.	896.7	1.043
	5215.	897.0	1.043
	5216.	897.1	1.044
	5217.	897.2	1.044
	5218.	897.4	1.044
	5219.	897.6	1.044
	5220.	897.7	1.044
	5221.	897.8	1.044
	5222.	897.9	1.044
	5223.	898.0	1.044
	5224.	898.2	1.045
	5225.	898.3	1.045
	5226.	898.5	1.045
	5227.	898.7	1.045
	5228.	898.9	1.045
	5229.	899.1	1.045
	5230.	899.2	1.045
	5231.	899.4	1.045
	5232.	899.6	1.045
	5233.	899.9	1.045
	5234.	900.0	1.045
